%OpenBCI Raw EEG Data
%Sample Rate = 250.0 Hz
%First Column = SampleIndex
%Other Columns = EEG data in microvolts followed by Accel Data (in G) interleaved with Aux Data
181, -46674.66, -27068.41, -44162.64, -51605.73, 187500.00, 837.99, -187500.02, -187500.02, 0.00, 0.00, 0.00
182, -46646.05, -27232.56, -44115.01, -51647.30, 187500.00, 793.91, -187500.02, -187500.02, 0.00, 0.00, 0.00
183, -46627.73, -27297.38, -44095.05, -51661.14, 187500.00, 750.04, -187500.02, -187500.02, 0.00, 0.00, 0.00
184, -46626.43, -27179.03, -44108.35, -51631.10, 187500.00, 756.03, -187500.02, -187500.02, 0.00, 0.00, 0.00
185, -46657.30, -27035.55, -44151.82, -51590.89, 187500.00, 810.97, -187500.02, -187500.02, 0.00, 0.00, 0.00
186, -46662.75, -27057.95, -44153.30, -51588.56, 187500.00, 841.57, -187500.02, -187500.02, 0.00, 0.00, 0.00
187, -46644.98, -27220.04, -44122.03, -51622.49, 187500.00, 822.37, -187500.02, -187500.02, 0.00, 0.00, 0.00
188, -46632.24, -27293.78, -44109.76, -51644.64, 187500.00, 796.55, -187500.02, -187500.02, 0.00, 0.00, 0.00
189, -46635.19, -27179.52, -44128.91, -51629.18, 187500.00, 798.11, -187500.02, -187500.02, 0.00, 0.00, 0.00
190, -46644.38, -27022.16, -44155.33, -51592.38, 187500.00, 833.90, -187500.02, -187500.02, 0.00, 0.00, 0.00
191, -46667.04, -27046.12, -44174.20, -51594.53, 187500.00, 860.07, -187500.02, -187500.02, 0.00, 0.00, 0.00
192, -46656.85, -27213.72, -44146.35, -51637.20, 187500.00, 825.96, -187500.02, -187500.02, 0.00, 0.00, 0.00
193, -46633.88, -27284.24, -44115.66, -51655.91, 187500.00, 781.89, -187500.02, -187500.02, 0.00, 0.00, 0.00
194, -46659.91, -27188.33, -44153.90, -51645.07, 187500.00, 779.83, -187500.02, -187500.02, 0.00, 0.00, 0.00
195, -46688.88, -27061.50, -44191.74, -51625.96, 187500.00, 796.01, -187500.02, -187500.02, 0.00, 0.00, 0.00
196, -46685.95, -27075.09, -44178.76, -51617.13, 187500.00, 803.55, -187500.02, -187500.02, 0.00, 0.00, 0.00
197, -46678.64, -27236.36, -44150.41, -51657.38, 187500.00, 766.20, -187500.02, -187500.02, 0.00, 0.00, 0.00
198, -46644.04, -27298.32, -44109.85, -51676.16, 187500.00, 715.05, -187500.02, -187500.02, 0.00, 0.00, 0.00
199, -46618.18, -27162.31, -44095.77, -51634.72, 187500.00, 717.92, -187500.02, -187500.02, 0.00, 0.00, 0.00
200, -46653.21, -27020.24, -44144.05, -51595.02, 187500.00, 766.31, -187500.02, -187500.02, 0.00, 0.00, 0.00
201, -46676.90, -27049.28, -44156.81, -51599.27, 187500.00, 789.60, -187500.02, -187500.02, 0.00, 0.00, 0.00
202, -46667.00, -27212.11, -44126.01, -51637.56, 187500.00, 759.20, -187500.02, -187500.02, 0.00, 0.00, 0.00
203, -46644.40, -27285.94, -44098.31, -51656.73, 187500.00, 717.20, -187500.02, -187500.02, 0.00, 0.00, 0.00
204, -46655.69, -27179.43, -44122.34, -51635.75, 187500.00, 725.52, -187500.02, -187500.02, 0.00, 0.00, 0.00
205, -46671.47, -27037.47, -44148.47, -51601.14, 187500.00, 766.91, -187500.02, -187500.02, 0.00, 0.00, 0.00
206, -46678.98, -27051.62, -44148.88, -51594.73, 187500.00, 795.10, -187500.02, -187500.02, 0.00, 0.00, 0.00
207, -46656.96, -27209.00, -44106.94, -51627.27, 187500.00, 772.95, -187500.02, -187500.02, 0.00, 0.00, 0.00
208, -46648.22, -27289.45, -44095.41, -51648.75, 187500.00, 735.39, -187500.02, -187500.02, 0.00, 0.00, 0.00
209, -46639.17, -27176.99, -44104.44, -51627.19, 187500.00, 728.71, -187500.02, -187500.02, 0.00, 0.00, 0.00
210, -46676.99, -27027.64, -44157.30, -51590.64, 187500.00, 773.77, -187500.02, -187500.02, 0.00, 0.00, 0.00
211, -46690.31, -27050.66, -44166.80, -51594.29, 187500.00, 794.14, -187500.02, -187500.02, 0.00, 0.00, 0.00
212, -46653.05, -27200.20, -44116.33, -51630.65, 187500.00, 767.85, -187500.02, -187500.02, 0.00, 0.00, 0.00
213, -46620.39, -27259.87, -44084.63, -51643.95, 187500.00, 739.84, -187500.02, -187500.02, 0.00, 0.00, 0.00
214, -46643.26, -27157.93, -44123.77, -51633.13, 187500.00, 745.72, -187500.02, -187500.02, 0.00, 0.00, 0.00
215, -46657.03, -27008.86, -44148.54, -51599.58, 187500.00, 782.58, -187500.02, -187500.02, 0.00, 0.00, 0.00
216, -46679.58, -27023.06, -44163.63, -51595.18, 187500.00, 809.67, -187500.02, -187500.02, 0.00, 0.00, 0.00
217, -46681.77, -27201.83, -44148.20, -51643.82, 187500.00, 770.00, -187500.02, -187500.02, 0.00, 0.00, 0.00
218, -46664.45, -27289.06, -44125.74, -51671.60, 187500.00, 710.41, -187500.02, -187500.02, 0.00, 0.00, 0.00
219, -46672.09, -27185.58, -44149.19, -51655.50, 187500.00, 696.75, -187500.02, -187500.02, 0.00, 0.00, 0.00
220, -46705.24, -27047.82, -44193.69, -51623.12, 187500.00, 728.87, -187500.02, -187500.02, 0.00, 0.00, 0.00
221, -46721.54, -27072.41, -44204.02, -51629.76, 187500.00, 747.67, -187500.02, -187500.02, 0.00, 0.00, 0.00
222, -46727.57, -27240.16, -44196.35, -51679.27, 187500.00, 709.18, -187500.02, -187500.02, 0.00, 0.00, 0.00
223, -46708.68, -27344.05, -44174.76, -51715.81, 187500.00, 648.69, -187500.02, -187500.02, 0.00, 0.00, 0.00
224, -46698.74, -27231.60, -44180.43, -51692.90, 187500.00, 645.05, -187500.02, -187500.02, 0.00, 0.00, 0.00
225, -46723.32, -27071.94, -44222.41, -51653.74, 187500.00, 685.22, -187500.02, -187500.02, 0.00, 0.00, 0.00
226, -46736.45, -27083.54, -44237.23, -51652.00, 187500.00, 703.88, -187500.02, -187500.02, 0.00, 0.00, 0.00
227, -46715.97, -27243.18, -44198.02, -51681.37, 187500.00, 667.36, -187500.02, -187500.02, 0.00, 0.00, 0.00
228, -46676.88, -27319.22, -44150.55, -51690.93, 187500.00, 622.27, -187500.02, -187500.02, 0.00, 0.00, 0.00
229, -46683.27, -27209.22, -44172.05, -51668.22, 187500.00, 620.02, -187500.02, -187500.02, 0.00, 0.00, 0.00
230, -46700.17, -27055.87, -44210.88, -51636.57, 187500.00, 649.74, -187500.02, -187500.02, 0.00, 0.00, 0.00
231, -46712.71, -27061.52, -44222.32, -51640.17, 187500.00, 669.66, -187500.02, -187500.02, 0.00, 0.00, 0.00
232, -46687.14, -27218.93, -44167.11, -51668.78, 187500.00, 643.42, -187500.02, -187500.02, 0.00, 0.00, 0.00
233, -46652.78, -27298.79, -44119.46, -51670.04, 187500.00, 615.57, -187500.02, -187500.02, 0.00, 0.00, 0.00
234, -46675.85, -27205.89, -44160.38, -51654.90, 187500.00, 623.03, -187500.02, -187500.02, 0.00, 0.00, 0.00
235, -46696.39, -27060.00, -44198.25, -51630.34, 187500.00, 658.82, -187500.02, -187500.02, 0.00, 0.00, 0.00
236, -46701.78, -27056.94, -44198.38, -51622.04, 187500.00, 692.08, -187500.02, -187500.02, 0.00, 0.00, 0.00
237, -46679.49, -27197.69, -44151.60, -51646.65, 187500.00, 681.37, -187500.02, -187500.02, 0.00, 0.00, 0.00
238, -46658.68, -27284.68, -44122.99, -51670.93, 187500.00, 647.53, -187500.02, -187500.02, 0.00, 0.00, 0.00
239, -46659.91, -27184.62, -44141.61, -51654.34, 187500.00, 649.27, -187500.02, -187500.02, 0.00, 0.00, 0.00
240, -46683.56, -27036.69, -44181.29, -51623.39, 187500.00, 685.33, -187500.02, -187500.02, 0.00, 0.00, 0.00
241, -46693.39, -27036.49, -44184.66, -51613.11, 187500.00, 711.79, -187500.02, -187500.02, 0.00, 0.00, 0.00
242, -46705.49, -27211.88, -44177.24, -51660.94, 187500.00, 687.29, -187500.02, -187500.02, 0.00, 0.00, 0.00
243, -46677.10, -27302.72, -44139.42, -51687.11, 187500.00, 639.24, -187500.02, -187500.02, 0.00, 0.00, 0.00
244, -46676.88, -27202.45, -44153.28, -51667.87, 187500.00, 627.28, -187500.02, -187500.02, 0.00, 0.00, 0.00
245, -46704.39, -27050.93, -44189.20, -51626.31, 187500.00, 664.05, -187500.02, -187500.02, 0.00, 0.00, 0.00
246, -46734.50, -27069.21, -44209.56, -51629.96, 187500.00, 686.71, -187500.02, -187500.02, 0.00, 0.00, 0.00
247, -46723.23, -27232.20, -44185.31, -51672.96, 187500.00, 656.09, -187500.02, -187500.02, 0.00, 0.00, 0.00
248, -46690.33, -27322.15, -44149.77, -51701.48, 187500.00, 603.56, -187500.02, -187500.02, 0.00, 0.00, 0.00
249, -46670.04, -27202.81, -44146.17, -51673.81, 187500.00, 598.60, -187500.02, -187500.02, 0.00, 0.00, 0.00
250, -46709.15, -27047.71, -44202.34, -51634.00, 187500.00, 642.05, -187500.02, -187500.02, 0.00, 0.00, 0.00
251, -46739.53, -27068.59, -44229.34, -51646.88, 187500.00, 654.15, -187500.02, -187500.02, 0.00, 0.00, 0.00
252, -46709.71, -27218.93, -44186.00, -51681.41, 187500.00, 616.66, -187500.02, -187500.02, 0.00, 0.00, 0.00
253, -46708.33, -27316.87, -44181.84, -51715.95, 187500.00, 568.87, -187500.02, -187500.02, 0.00, 0.00, 0.00
254, -46726.63, -27245.52, -44214.59, -51719.19, 187500.00, 557.23, -187500.02, -187500.02, 0.00, 0.00, 0.00
255, -46733.50, -27095.32, -44233.32, -51680.23, 187500.00, 590.89, -187500.02, -187500.02, 0.00, 0.00, 0.00
0, -46761.79, -27096.97, -44253.34, -51677.16, 187500.00, 611.05, -187500.02, -187500.02, 0.00, 0.00, 0.00
1, -46748.29, -27254.06, -44217.32, -51713.26, 187500.00, 568.27, -187500.02, -187500.02, 0.00, 0.00, 0.00
2, -46716.06, -27344.27, -44178.24, -51734.16, 187500.00, 517.31, -187500.02, -187500.02, 0.00, 0.00, 0.00
3, -46706.61, -27239.89, -44182.67, -51707.50, 187500.00, 516.64, -187500.02, -187500.02, 0.00, 0.00, 0.00
4, -46741.88, -27087.12, -44233.41, -51671.71, 187500.00, 562.73, -187500.02, -187500.02, 0.00, 0.00, 0.00
5, -46763.80, -27092.77, -44246.55, -51674.35, 187500.00, 589.26, -187500.02, -187500.02, 0.00, 0.00, 0.00
6, -46737.96, -27248.81, -44199.39, -51706.89, 187500.00, 561.90, -187500.02, -187500.02, 0.00, 0.00, 0.00
7, -46705.85, -27341.03, -44158.91, -51727.52, 187500.00, 517.42, -187500.02, -187500.02, 0.00, 0.00, 0.00
8, -46674.66, -27221.12, -44143.06, -51692.57, 187500.00, 519.59, -187500.02, -187500.02, 0.00, 0.00, 0.00
9, -46710.45, -27055.31, -44199.03, -51650.83, 187500.00, 571.91, -187500.02, -187500.02, 0.00, 0.00, 0.00
10, -46717.65, -27049.74, -44200.93, -51644.35, 187500.00, 600.03, -187500.02, -187500.02, 0.00, 0.00, 0.00
11, -46696.12, -27197.96, -44159.91, -51665.77, 187500.00, 583.13, -187500.02, -187500.02, 0.00, 0.00, 0.00
12, -46692.14, -27308.89, -44150.15, -51698.15, 187500.00, 541.31, -187500.02, -187500.02, 0.00, 0.00, 0.00
13, -46659.18, -27200.40, -44131.15, -51669.77, 187500.00, 534.52, -187500.02, -187500.02, 0.00, 0.00, 0.00
14, -46687.59, -27038.26, -44174.40, -51626.58, 187500.00, 582.62, -187500.02, -187500.02, 0.00, 0.00, 0.00
15, -46711.72, -27041.72, -44190.43, -51632.91, 187500.00, 606.09, -187500.02, -187500.02, 0.00, 0.00, 0.00
16, -46683.27, -27187.70, -44142.88, -51664.80, 187500.00, 581.82, -187500.02, -187500.02, 0.00, 0.00, 0.00
17, -46674.78, -27294.65, -44129.23, -51695.92, 187500.00, 534.41, -187500.02, -187500.02, 0.00, 0.00, 0.00
18, -46659.27, -27204.82, -44127.21, -51681.21, 187500.00, 516.95, -187500.02, -187500.02, 0.00, 0.00, 0.00
19, -46689.69, -27044.31, -44173.97, -51640.17, 187500.00, 552.27, -187500.02, -187500.02, 0.00, 0.00, 0.00
20, -46707.81, -27047.89, -44191.05, -51643.77, 187500.00, 575.13, -187500.02, -187500.02, 0.00, 0.00, 0.00
21, -46699.12, -27193.47, -44166.93, -51672.71, 187500.00, 557.99, -187500.02, -187500.02, 0.00, 0.00, 0.00
22, -46694.71, -27309.07, -44153.23, -51717.78, 187500.00, 506.33, -187500.02, -187500.02, 0.00, 0.00, 0.00
23, -46670.02, -27203.05, -44143.26, -51694.93, 187500.00, 506.27, -187500.02, -187500.02, 0.00, 0.00, 0.00
24, -46707.63, -27057.54, -44192.35, -51666.37, 187500.00, 548.24, -187500.02, -187500.02, 0.00, 0.00, 0.00
25, -46719.64, -27050.06, -44198.32, -51661.74, 187500.00, 574.31, -187500.02, -187500.02, 0.00, 0.00, 0.00
26, -46711.32, -27200.55, -44171.98, -51696.14, 187500.00, 551.15, -187500.02, -187500.02, 0.00, 0.00, 0.00
27, -46682.80, -27297.27, -44133.20, -51717.51, 187500.00, 503.18, -187500.02, -187500.02, 0.00, 0.00, 0.00
28, -46682.60, -27205.74, -44144.45, -51694.89, 187500.00, 499.85, -187500.02, -187500.02, 0.00, 0.00, 0.00
29, -46712.44, -27056.12, -44192.50, -51661.50, 187500.00, 539.26, -187500.02, -187500.02, 0.00, 0.00, 0.00
30, -46731.04, -27052.74, -44207.59, -51660.87, 187500.00, 562.59, -187500.02, -187500.02, 0.00, 0.00, 0.00
31, -46727.71, -27207.93, -44182.74, -51698.22, 187500.00, 543.35, -187500.02, -187500.02, 0.00, 0.00, 0.00
32, -46701.38, -27309.47, -44143.66, -51728.46, 187500.00, 499.54, -187500.02, -187500.02, 0.00, 0.00, 0.00
33, -46675.16, -27203.35, -44129.52, -51695.09, 187500.00, 501.26, -187500.02, -187500.02, 0.00, 0.00, 0.00
34, -46724.80, -27055.04, -44197.38, -51665.32, 187500.00, 536.96, -187500.02, -187500.02, 0.00, 0.00, 0.00
35, -46743.35, -27050.46, -44213.58, -51664.18, 187500.00, 552.85, -187500.02, -187500.02, 0.00, 0.00, 0.00
36, -46722.36, -27197.20, -44177.53, -51691.47, 187500.00, 527.59, -187500.02, -187500.02, 0.00, 0.00, 0.00
37, -46722.74, -27317.18, -44174.09, -51727.41, 187500.00, 479.13, -187500.02, -187500.02, 0.00, 0.00, 0.00
38, -46712.30, -27236.70, -44176.86, -51719.07, 187500.00, 460.94, -187500.02, -187500.02, 0.00, 0.00, 0.00
39, -46734.23, -27076.43, -44212.35, -51680.88, 187500.00, 495.07, -187500.02, -187500.02, 0.00, 0.00, 0.00
40, -46762.93, -27077.57, -44241.19, -51683.91, 187500.00, 512.10, -187500.02, -187500.02, 0.00, 0.00, 0.00
41, -46737.77, -27230.08, -44193.55, -51716.61, 187500.00, 474.33, -187500.02, -187500.02, 0.00, 0.00, 0.00
42, -46697.00, -27320.96, -44142.64, -51727.50, 187500.00, 432.75, -187500.02, -187500.02, 0.00, 0.00, 0.00
43, -46691.74, -27227.35, -44152.11, -51711.41, 187500.00, 430.11, -187500.02, -187500.02, 0.00, 0.00, 0.00
44, -46720.89, -27053.46, -44201.98, -51672.70, 187500.00, 473.25, -187500.02, -187500.02, 0.00, 0.00, 0.00
45, -46748.45, -27045.77, -44223.71, -51679.04, 187500.00, 490.31, -187500.02, -187500.02, 0.00, 0.00, 0.00
46, -46714.52, -27183.25, -44171.34, -51695.43, 187500.00, 466.77, -187500.02, -187500.02, 0.00, 0.00, 0.00
47, -46675.49, -27277.17, -44124.62, -51708.23, 187500.00, 431.75, -187500.02, -187500.02, 0.00, 0.00, 0.00
48, -46662.75, -27179.36, -44122.88, -51675.42, 187500.00, 447.62, -187500.02, -187500.02, 0.00, 0.00, 0.00
49, -46704.50, -27033.67, -44180.73, -51641.85, 187500.00, 503.76, -187500.02, -187500.02, 0.00, 0.00, 0.00
50, -46713.67, -27019.73, -44189.55, -51632.66, 187500.00, 550.70, -187500.02, -187500.02, 0.00, 0.00, 0.00
51, -46675.63, -27146.93, -44138.52, -51650.19, 187500.00, 555.19, -187500.02, -187500.02, 0.00, 0.00, 0.00
52, -46649.77, -27244.14, -44114.54, -51673.45, 187500.00, 527.32, -187500.02, -187500.02, 0.00, 0.00, 0.00
53, -46636.93, -27153.50, -44122.10, -51653.61, 187500.00, 527.26, -187500.02, -187500.02, 0.00, 0.00, 0.00
54, -46647.15, -26986.27, -44152.85, -51607.81, 187500.00, 567.04, -187500.02, -187500.02, 0.00, 0.00, 0.00
55, -46677.50, -26975.40, -44183.56, -51600.99, 187500.00, 591.81, -187500.02, -187500.02, 0.00, 0.00, 0.00
56, -46677.73, -27129.00, -44170.60, -51641.29, 187500.00, 550.66, -187500.02, -187500.02, 0.00, 0.00, 0.00
57, -46644.60, -27240.72, -44130.63, -51671.26, 187500.00, 473.50, -187500.02, -187500.02, 0.00, 0.00, 0.00
58, -46610.02, -27135.91, -44108.75, -51635.90, 187500.00, 449.27, -187500.02, -187500.02, 0.00, 0.00, 0.00
59, -46650.64, -26976.90, -44167.49, -51602.35, 187500.00, 471.93, -187500.02, -187500.02, 0.00, 0.00, 0.00
60, -46652.00, -26956.61, -44170.40, -51592.14, 187500.00, 481.75, -187500.02, -187500.02, 0.00, 0.00, 0.00
61, -46627.44, -27091.79, -44132.02, -51612.37, 187500.00, 468.60, -187500.02, -187500.02, 0.00, 0.00, 0.00
62, -46631.79, -27218.66, -44129.02, -51651.93, 187500.00, 430.49, -187500.02, -187500.02, 0.00, 0.00, 0.00
63, -46629.45, -27151.60, -44138.50, -51653.02, 187500.00, 415.74, -187500.02, -187500.02, 0.00, 0.00, 0.00
64, -46654.26, -26993.78, -44181.55, -51620.70, 187500.00, 458.19, -187500.02, -187500.02, 0.00, 0.00, 0.00
65, -46688.43, -26987.79, -44213.40, -51623.41, 187500.00, 494.17, -187500.02, -187500.02, 0.00, 0.00, 0.00
66, -46684.68, -27143.29, -44191.32, -51664.13, 187500.00, 476.09, -187500.02, -187500.02, 0.00, 0.00, 0.00
67, -46643.93, -27249.37, -44141.39, -51687.27, 187500.00, 435.32, -187500.02, -187500.02, 0.00, 0.00, 0.00
68, -46648.83, -27175.18, -44160.77, -51671.22, 187500.00, 433.38, -187500.02, -187500.02, 0.00, 0.00, 0.00
69, -46671.38, -27020.17, -44201.29, -51640.06, 187500.00, 461.27, -187500.02, -187500.02, 0.00, 0.00, 0.00
70, -46689.24, -27002.96, -44211.05, -51634.47, 187500.00, 479.24, -187500.02, -187500.02, 0.00, 0.00, 0.00
71, -46694.74, -27159.40, -44193.73, -51672.25, 187500.00, 453.36, -187500.02, -187500.02, 0.00, 0.00, 0.00
72, -46656.40, -27278.87, -44138.97, -51704.34, 187500.00, 391.83, -187500.02, -187500.02, 0.00, 0.00, 0.00
73, -46650.75, -27187.92, -44145.05, -51681.21, 187500.00, 376.87, -187500.02, -187500.02, 0.00, 0.00, 0.00
74, -46667.51, -27020.33, -44176.68, -51644.02, 187500.00, 398.44, -187500.02, -187500.02, 0.00, 0.00, 0.00
75, -46713.65, -27002.74, -44223.19, -51639.43, 187500.00, 424.44, -187500.02, -187500.02, 0.00, 0.00, 0.00
76, -46712.24, -27159.76, -44208.44, -51690.13, 187500.00, 387.67, -187500.02, -187500.02, 0.00, 0.00, 0.00
77, -46680.59, -27269.04, -44168.07, -51721.71, 187500.00, 334.38, -187500.02, -187500.02, 0.00, 0.00, 0.00
78, -46680.92, -27193.47, -44177.04, -51712.10, 187500.00, 327.59, -187500.02, -187500.02, 0.00, 0.00, 0.00
79, -46704.97, -27030.84, -44216.29, -51676.25, 187500.00, 366.05, -187500.02, -187500.02, 0.00, 0.00, 0.00
80, -46727.86, -27009.65, -44238.71, -51669.77, 187500.00, 401.06, -187500.02, -187500.02, 0.00, 0.00, 0.00
81, -46702.34, -27154.17, -44193.80, -51689.50, 187500.00, 396.61, -187500.02, -187500.02, 0.00, 0.00, 0.00
82, -46681.35, -27266.80, -44160.95, -51706.96, 187500.00, 372.54, -187500.02, -187500.02, 0.00, 0.00, 0.00
83, -46661.59, -27181.71, -44148.80, -51686.75, 187500.00, 376.07, -187500.02, -187500.02, 0.00, 0.00, 0.00
84, -46681.19, -27008.15, -44183.86, -51637.98, 187500.00, 426.36, -187500.02, -187500.02, 0.00, 0.00, 0.00
85, -46705.55, -26983.27, -44206.23, -51624.68, 187500.00, 462.55, -187500.02, -187500.02, 0.00, 0.00, 0.00
86, -46709.09, -27136.11, -44191.50, -51658.32, 187500.00, 446.65, -187500.02, -187500.02, 0.00, 0.00, 0.00
87, -46683.67, -27259.99, -44157.75, -51694.93, 187500.00, 395.02, -187500.02, -187500.02, 0.00, 0.00, 0.00
88, -46644.54, -27167.05, -44129.25, -51666.64, 187500.00, 384.85, -187500.02, -187500.02, 0.00, 0.00, 0.00
89, -46666.26, -26989.31, -44165.46, -51620.19, 187500.00, 431.90, -187500.02, -187500.02, 0.00, 0.00, 0.00
90, -46688.75, -26957.07, -44189.71, -51611.05, 187500.00, 465.65, -187500.02, -187500.02, 0.00, 0.00, 0.00
91, -46707.79, -27116.33, -44184.61, -51653.32, 187500.00, 445.13, -187500.02, -187500.02, 0.00, 0.00, 0.00
92, -46673.82, -27240.14, -44135.02, -51689.95, 187500.00, 383.02, -187500.02, -187500.02, 0.00, 0.00, 0.00
93, -46638.75, -27149.34, -44110.34, -51657.14, 187500.00, 379.26, -187500.02, -187500.02, 0.00, 0.00, 0.00
94, -46661.48, -26986.02, -44153.68, -51615.59, 187500.00, 421.06, -187500.02, -187500.02, 0.00, 0.00, 0.00
95, -46687.43, -26960.83, -44177.57, -51608.12, 187500.00, 448.96, -187500.02, -187500.02, 0.00, 0.00, 0.00
96, -46697.78, -27116.11, -44165.08, -51642.86, 187500.00, 434.18, -187500.02, -187500.02, 0.00, 0.00, 0.00
97, -46673.44, -27248.74, -44127.64, -51683.02, 187500.00, 381.79, -187500.02, -187500.02, 0.00, 0.00, 0.00
98, -46647.20, -27162.42, -44112.55, -51657.79, 187500.00, 368.56, -187500.02, -187500.02, 0.00, 0.00, 0.00
99, -46647.51, -26978.67, -44128.45, -51606.20, 187500.00, 400.05, -187500.02, -187500.02, 0.00, 0.00, 0.00
100, -46677.53, -26941.27, -44158.11, -51593.12, 187500.00, 429.71, -187500.02, -187500.02, 0.00, 0.00, 0.00
101, -46669.61, -27090.09, -44129.74, -51630.56, 187500.00, 400.77, -187500.02, -187500.02, 0.00, 0.00, 0.00
102, -46625.89, -27203.12, -44070.78, -51651.10, 187500.00, 349.16, -187500.02, -187500.02, 0.00, 0.00, 0.00
103, -46619.68, -27125.65, -44077.80, -51632.17, 187500.00, 340.22, -187500.02, -187500.02, 0.00, 0.00, 0.00
104, -46648.52, -26967.27, -44126.16, -51599.00, 187500.00, 365.34, -187500.02, -187500.02, 0.00, 0.00, 0.00
105, -46683.83, -26947.51, -44160.23, -51601.26, 187500.00, 385.32, -187500.02, -187500.02, 0.00, 0.00, 0.00
106, -46671.65, -27086.56, -44133.79, -51632.62, 187500.00, 367.31, -187500.02, -187500.02, 0.00, 0.00, 0.00
107, -46663.71, -27209.52, -44119.75, -51667.31, 187500.00, 324.97, -187500.02, -187500.02, 0.00, 0.00, 0.00
108, -46653.41, -27146.42, -44120.22, -51662.46, 187500.00, 308.70, -187500.02, -187500.02, 0.00, 0.00, 0.00
109, -46669.26, -26975.89, -44152.72, -51619.39, 187500.00, 350.56, -187500.02, -187500.02, 0.00, 0.00, 0.00
110, -46717.96, -26952.43, -44200.24, -51620.14, 187500.00, 386.31, -187500.02, -187500.02, 0.00, 0.00, 0.00
111, -46711.10, -27106.47, -44171.92, -51663.55, 187500.00, 366.28, -187500.02, -187500.02, 0.00, 0.00, 0.00
112, -46684.99, -27226.12, -44134.17, -51694.04, 187500.00, 320.21, -187500.02, -187500.02, 0.00, 0.00, 0.00
113, -46670.39, -27164.54, -44127.33, -51679.49, 187500.00, 295.56, -187500.02, -187500.02, 0.00, 0.00, 0.00
114, -46700.55, -27011.68, -44170.89, -51638.45, 187500.00, 326.22, -187500.02, -187500.02, 0.00, 0.00, 0.00
115, -46720.60, -26985.95, -44189.49, -51628.32, 187500.00, 347.14, -187500.02, -187500.02, 0.00, 0.00, 0.00
116, -46707.97, -27116.73, -44162.64, -51647.70, 187500.00, 320.05, -187500.02, -187500.02, 0.00, 0.00, 0.00
117, -46687.18, -27246.04, -44133.92, -51678.71, 187500.00, 253.58, -187500.02, -187500.02, 0.00, 0.00, 0.00
118, -46674.22, -27178.02, -44131.80, -51668.11, 187500.00, 222.36, -187500.02, -187500.02, 0.00, 0.00, 0.00
119, -46689.20, -27006.52, -44164.96, -51629.15, 187500.00, 242.83, -187500.02, -187500.02, 0.00, 0.00, 0.00
120, -46710.36, -26970.46, -44188.93, -51617.69, 187500.00, 269.20, -187500.02, -187500.02, 0.00, 0.00, 0.00
121, -46712.86, -27118.16, -44177.91, -51653.11, 187500.00, 243.50, -187500.02, -187500.02, 0.00, 0.00, 0.00
122, -46685.82, -27245.57, -44139.64, -51683.87, 187500.00, 197.16, -187500.02, -187500.02, 0.00, 0.00, 0.00
123, -46675.67, -27178.98, -44140.94, -51672.34, 187500.00, 190.15, -187500.02, -187500.02, 0.00, 0.00, 0.00
124, -46714.38, -27025.20, -44199.32, -51641.16, 187500.00, 231.81, -187500.02, -187500.02, 0.00, 0.00, 0.00
125, -46723.73, -26992.57, -44213.49, -51636.80, 187500.00, 264.53, -187500.02, -187500.02, 0.00, 0.00, 0.00
126, -46736.09, -27132.98, -44219.15, -51673.75, 187500.00, 255.32, -187500.02, -187500.02, 0.00, 0.00, 0.00
127, -46701.35, -27263.25, -44173.68, -51710.51, 187500.00, 203.15, -187500.02, -187500.02, 0.00, 0.00, 0.00
128, -46671.78, -27184.06, -44147.46, -51677.88, 187500.00, 204.79, -187500.02, -187500.02, 0.00, 0.00, 0.00
129, -46679.40, -27005.62, -44174.49, -51626.14, 187500.00, 248.39, -187500.02, -187500.02, 0.00, 0.00, 0.00
130, -46708.35, -26966.26, -44208.60, -51616.64, 187500.00, 277.16, -187500.02, -187500.02, 0.00, 0.00, 0.00
131, -46699.59, -27098.74, -44188.19, -51644.38, 187500.00, 260.20, -187500.02, -187500.02, 0.00, 0.00, 0.00
132, -46659.82, -27223.78, -44139.53, -51674.19, 187500.00, 207.78, -187500.02, -187500.02, 0.00, 0.00, 0.00
133, -46646.79, -27159.54, -44134.68, -51651.01, 187500.00, 202.57, -187500.02, -187500.02, 0.00, 0.00, 0.00
134, -46686.00, -27006.54, -44191.05, -51621.24, 187500.00, 234.94, -187500.02, -187500.02, 0.00, 0.00, 0.00
135, -46714.65, -26978.17, -44219.48, -51618.43, 187500.00, 257.74, -187500.02, -187500.02, 0.00, 0.00, 0.00
136, -46705.55, -27106.54, -44194.14, -51644.31, 187500.00, 237.80, -187500.02, -187500.02, 0.00, 0.00, 0.00
137, -46688.48, -27238.26, -44170.06, -51682.33, 187500.00, 190.86, -187500.02, -187500.02, 0.00, 0.00, 0.00
138, -46674.13, -27187.59, -44170.15, -51672.43, 187500.00, 179.31, -187500.02, -187500.02, 0.00, 0.00, 0.00
139, -46698.40, -27026.63, -44218.54, -51639.64, 187500.00, 214.26, -187500.02, -187500.02, 0.00, 0.00, 0.00
140, -46708.04, -26971.40, -44232.20, -51624.95, 187500.00, 244.24, -187500.02, -187500.02, 0.00, 0.00, 0.00
141, -46708.10, -27105.98, -44216.13, -51651.59, 187500.00, 236.26, -187500.02, -187500.02, 0.00, 0.00, 0.00
142, -46690.13, -27250.40, -44185.35, -51689.52, 187500.00, 191.04, -187500.02, -187500.02, 0.00, 0.00, 0.00
143, -46679.85, -27190.05, -44185.17, -51681.57, 187500.00, 180.45, -187500.02, -187500.02, 0.00, 0.00, 0.00
144, -46684.16, -27013.40, -44209.34, -51641.29, 187500.00, 214.67, -187500.02, -187500.02, 0.00, 0.00, 0.00
145, -46708.37, -26959.29, -44237.54, -51622.71, 187500.00, 255.77, -187500.02, -187500.02, 0.00, 0.00, 0.00
146, -46695.16, -27085.84, -44210.23, -51644.26, 187500.00, 249.91, -187500.02, -187500.02, 0.00, 0.00, 0.00
147, -46651.31, -27209.25, -44158.17, -51664.85, 187500.00, 211.58, -187500.02, -187500.02, 0.00, 0.00, 0.00
148, -46647.84, -27151.22, -44165.95, -51650.34, 187500.00, 210.20, -187500.02, -187500.02, 0.00, 0.00, 0.00
149, -46664.11, -26982.38, -44199.50, -51612.14, 187500.00, 250.81, -187500.02, -187500.02, 0.00, 0.00, 0.00
150, -46692.37, -26938.34, -44224.18, -51597.37, 187500.00, 299.49, -187500.02, -187500.02, 0.00, 0.00, 0.00
151, -46702.58, -27078.94, -44212.96, -51633.11, 187500.00, 291.27, -187500.02, -187500.02, 0.00, 0.00, 0.00
152, -46655.82, -27205.92, -44147.29, -51655.68, 187500.00, 243.03, -187500.02, -187500.02, 0.00, 0.00, 0.00
153, -46658.01, -27150.75, -44158.42, -51639.14, 187500.00, 237.17, -187500.02, -187500.02, 0.00, 0.00, 0.00
154, -46686.07, -26996.41, -44205.67, -51612.43, 187500.00, 260.46, -187500.02, -187500.02, 0.00, 0.00, 0.00
155, -46693.33, -26942.84, -44213.07, -51594.71, 187500.00, 284.31, -187500.02, -187500.02, 0.00, 0.00, 0.00
156, -46668.77, -27056.27, -44171.92, -51610.36, 187500.00, 275.49, -187500.02, -187500.02, 0.00, 0.00, 0.00
157, -46612.97, -27169.66, -44105.38, -51623.39, 187500.00, 242.87, -187500.02, -187500.02, 0.00, 0.00, 0.00
158, -46620.57, -27115.04, -44126.01, -51612.81, 187500.00, 240.26, -187500.02, -187500.02, 0.00, 0.00, 0.00
159, -46633.65, -26952.92, -44153.28, -51581.23, 187500.00, 262.81, -187500.02, -187500.02, 0.00, 0.00, 0.00
160, -46634.84, -26893.21, -44154.48, -51559.28, 187500.00, 298.95, -187500.02, -187500.02, 0.00, 0.00, 0.00
161, -46636.62, -27016.46, -44140.56, -51579.58, 187500.00, 295.31, -187500.02, -187500.02, 0.00, 0.00, 0.00
162, -46624.62, -27162.29, -44114.05, -51624.28, 187500.00, 245.15, -187500.02, -187500.02, 0.00, 0.00, 0.00
163, -46602.31, -27098.56, -44099.92, -51612.23, 187500.00, 227.74, -187500.02, -187500.02, 0.00, 0.00, 0.00
164, -46630.52, -26938.75, -44149.61, -51582.75, 187500.00, 250.94, -187500.02, -187500.02, 0.00, 0.00, 0.00
165, -46641.18, -26880.95, -44161.86, -51568.20, 187500.00, 276.89, -187500.02, -187500.02, 0.00, 0.00, 0.00
166, -46644.69, -27007.54, -44149.14, -51589.86, 187500.00, 276.02, -187500.02, -187500.02, 0.00, 0.00, 0.00
167, -46613.87, -27146.46, -44104.73, -51625.46, 187500.00, 228.21, -187500.02, -187500.02, 0.00, 0.00, 0.00
168, -46567.55, -27075.90, -44068.23, -51598.15, 187500.00, 217.10, -187500.02, -187500.02, 0.00, 0.00, 0.00
169, -46602.69, -26908.75, -44122.14, -51556.80, 187500.00, 259.44, -187500.02, -187500.02, 0.00, 0.00, 0.00
170, -46651.40, -26874.11, -44170.09, -51558.90, 187500.00, 292.94, -187500.02, -187500.02, 0.00, 0.00, 0.00
171, -46656.43, -27010.12, -44154.08, -51591.67, 187500.00, 282.73, -187500.02, -187500.02, 0.00, 0.00, 0.00
172, -46635.17, -27157.05, -44115.57, -51629.53, 187500.00, 239.43, -187500.02, -187500.02, 0.00, 0.00, 0.00
173, -46644.96, -27119.08, -44131.71, -51626.98, 187500.00, 231.70, -187500.02, -187500.02, 0.00, 0.00, 0.00
174, -46643.98, -26957.41, -44146.86, -51588.92, 187500.00, 256.96, -187500.02, -187500.02, 0.00, 0.00, 0.00
175, -46673.70, -26898.63, -44177.68, -51564.33, 187500.00, 300.92, -187500.02, -187500.02, 0.00, 0.00, 0.00
176, -46686.11, -27038.86, -44174.80, -51603.23, 187500.00, 286.28, -187500.02, -187500.02, 0.00, 0.00, 0.00
177, -46650.88, -27176.61, -44123.73, -51638.16, 187500.00, 231.03, -187500.02, -187500.02, 0.00, 0.00, 0.00
178, -46651.04, -27140.00, -44130.28, -51637.42, 187500.00, 210.24, -187500.02, -187500.02, 0.00, 0.00, 0.00
179, -46652.80, -26979.02, -44150.59, -51601.44, 187500.00, 228.68, -187500.02, -187500.02, 0.00, 0.00, 0.00
180, -46656.23, -26905.87, -44158.64, -51569.09, 187500.00, 266.95, -187500.02, -187500.02, 0.00, 0.00, 0.00
181, -46669.99, -27027.88, -44160.59, -51594.17, 187500.00, 263.73, -187500.02, -187500.02, 0.00, 0.00, 0.00
182, -46652.74, -27177.69, -44131.64, -51640.06, 187500.00, 211.98, -187500.02, -187500.02, 0.00, 0.00, 0.00
183, -46641.41, -27136.78, -44127.84, -51633.58, 187500.00, 190.03, -187500.02, -187500.02, 0.00, 0.00, 0.00
184, -46651.26, -26972.47, -44151.89, -51591.73, 187500.00, 215.00, -187500.02, -187500.02, 0.00, 0.00, 0.00
185, -46673.21, -26907.43, -44173.28, -51563.84, 187500.00, 262.99, -187500.02, -187500.02, 0.00, 0.00, 0.00
186, -46673.05, -27031.51, -44161.03, -51589.30, 187500.00, 263.26, -187500.02, -187500.02, 0.00, 0.00, 0.00
187, -46647.80, -27167.85, -44124.58, -51618.74, 187500.00, 221.26, -187500.02, -187500.02, 0.00, 0.00, 0.00
188, -46631.35, -27127.78, -44115.82, -51608.48, 187500.00, 206.95, -187500.02, -187500.02, 0.00, 0.00, 0.00
189, -46653.03, -26960.09, -44159.27, -51571.33, 187500.00, 242.05, -187500.02, -187500.02, 0.00, 0.00, 0.00
190, -46666.57, -26896.84, -44176.34, -51556.40, 187500.00, 273.83, -187500.02, -187500.02, 0.00, 0.00, 0.00
191, -46662.24, -27016.46, -44162.55, -51582.86, 187500.00, 269.07, -187500.02, -187500.02, 0.00, 0.00, 0.00
192, -46632.11, -27159.76, -44114.54, -51613.11, 187500.00, 226.09, -187500.02, -187500.02, 0.00, 0.00, 0.00
193, -46622.81, -27119.35, -44101.89, -51591.04, 187500.00, 215.94, -187500.02, -187500.02, 0.00, 0.00, 0.00
194, -46621.47, -26949.16, -44121.43, -51548.35, 187500.00, 238.98, -187500.02, -187500.02, 0.00, 0.00, 0.00
195, -46672.16, -26896.01, -44181.55, -51542.29, 187500.00, 271.77, -187500.02, -187500.02, 0.00, 0.00, 0.00
196, -46678.18, -27027.35, -44171.38, -51577.74, 187500.00, 251.73, -187500.02, -187500.02, 0.00, 0.00, 0.00
197, -46656.70, -27174.85, -44136.36, -51616.86, 187500.00, 191.20, -187500.02, -187500.02, 0.00, 0.00, 0.00
198, -46635.50, -27137.45, -44124.29, -51613.42, 187500.00, 164.75, -187500.02, -187500.02, 0.00, 0.00, 0.00
199, -46660.70, -26967.87, -44164.61, -51571.33, 187500.00, 202.08, -187500.02, -187500.02, 0.00, 0.00, 0.00
200, -46691.92, -26913.89, -44197.33, -51563.53, 187500.00, 234.27, -187500.02, -187500.02, 0.00, 0.00, 0.00
201, -46700.70, -27030.97, -44188.21, -51592.32, 187500.00, 234.45, -187500.02, -187500.02, 0.00, 0.00, 0.00
202, -46671.83, -27172.05, -44145.57, -51631.23, 187500.00, 194.44, -187500.02, -187500.02, 0.00, 0.00, 0.00
203, -46646.17, -27132.80, -44127.95, -51620.50, 187500.00, 185.03, -187500.02, -187500.02, 0.00, 0.00, 0.00
204, -46687.72, -26985.17, -44186.13, -51591.33, 187500.00, 219.40, -187500.02, -187500.02, 0.00, 0.00, 0.00
205, -46696.35, -26921.69, -44198.16, -51576.45, 187500.00, 251.93, -187500.02, -187500.02, 0.00, 0.00, 0.00
206, -46702.27, -27041.38, -44189.42, -51602.40, 187500.00, 245.69, -187500.02, -187500.02, 0.00, 0.00, 0.00
207, -46650.86, -27179.43, -44122.01, -51631.05, 187500.00, 199.20, -187500.02, -187500.02, 0.00, 0.00, 0.00
208, -46645.27, -27131.69, -44123.28, -51612.14, 187500.00, 194.93, -187500.02, -187500.02, 0.00, 0.00, 0.00
209, -46696.93, -26998.09, -44195.81, -51602.93, 187500.00, 207.51, -187500.02, -187500.02, 0.00, 0.00, 0.00
210, -46696.82, -26922.96, -44198.52, -51583.45, 187500.00, 232.97, -187500.02, -187500.02, 0.00, 0.00, 0.00
211, -46693.75, -27032.76, -44175.56, -51600.95, 187500.00, 231.43, -187500.02, -187500.02, 0.00, 0.00, 0.00
212, -46657.90, -27178.09, -44125.23, -51632.30, 187500.00, 186.75, -187500.02, -187500.02, 0.00, 0.00, 0.00
213, -46640.45, -27131.62, -44119.05, -51614.56, 187500.00, 180.47, -187500.02, -187500.02, 0.00, 0.00, 0.00
214, -46650.14, -26967.71, -44147.06, -51582.68, 187500.00, 203.47, -187500.02, -187500.02, 0.00, 0.00, 0.00
215, -46660.85, -26884.63, -44164.59, -51549.43, 187500.00, 245.89, -187500.02, -187500.02, 0.00, 0.00, 0.00
216, -46699.48, -27020.20, -44190.83, -51590.55, 187500.00, 238.38, -187500.02, -187500.02, 0.00, 0.00, 0.00
217, -46655.84, -27167.00, -44133.38, -51625.00, 187500.00, 181.25, -187500.02, -187500.02, 0.00, 0.00, 0.00
218, -46618.76, -27121.29, -44107.68, -51608.23, 187500.00, 165.43, -187500.02, -187500.02, 0.00, 0.00, 0.00
219, -46622.81, -26938.77, -44137.03, -51560.04, 187500.00, 204.56, -187500.02, -187500.02, 0.00, 0.00, 0.00
220, -46664.11, -26876.00, -44186.22, -51549.02, 187500.00, 249.78, -187500.02, -187500.02, 0.00, 0.00, 0.00
221, -46638.52, -26984.37, -44142.66, -51566.12, 187500.00, 241.67, -187500.02, -187500.02, 0.00, 0.00, 0.00
222, -46606.14, -27119.21, -44096.13, -51585.01, 187500.00, 207.42, -187500.02, -187500.02, 0.00, 0.00, 0.00
223, -46613.62, -27103.17, -44113.27, -51595.45, 187500.00, 182.68, -187500.02, -187500.02, 0.00, 0.00, 0.00
224, -46639.28, -26947.29, -44159.38, -51572.31, 187500.00, 198.66, -187500.02, -187500.02, 0.00, 0.00, 0.00
225, -46710.65, -26908.06, -44234.05, -51586.62, 187500.00, 217.15, -187500.02, -187500.02, 0.00, 0.00, 0.00
226, -46722.43, -27051.67, -44229.30, -51630.76, 187500.00, 192.25, -187500.02, -187500.02, 0.00, 0.00, 0.00
227, -46711.50, -27218.81, -44202.96, -51682.57, 187500.00, 135.61, -187500.02, -187500.02, 0.00, 0.00, 0.00
228, -46718.05, -27202.61, -44217.27, -51693.30, 187500.00, 108.47, -187500.02, -187500.02, 0.00, 0.00, 0.00
229, -46732.11, -27037.41, -44253.03, -51662.28, 187500.00, 126.62, -187500.02, -187500.02, 0.00, 0.00, 0.00
230, -46762.35, -26968.79, -44289.38, -51648.69, 187500.00, 158.34, -187500.02, -187500.02, 0.00, 0.00, 0.00
231, -46732.55, -27068.97, -44243.13, -51655.53, 187500.00, 154.56, -187500.02, -187500.02, 0.00, 0.00, 0.00
232, -46691.47, -27197.69, -44185.69, -51671.58, 187500.00, 122.69, -187500.02, -187500.02, 0.00, 0.00, 0.00
233, -46674.33, -27161.26, -44173.17, -51658.25, 187500.00, 114.06, -187500.02, -187500.02, 0.00, 0.00, 0.00
234, -46672.54, -26985.95, -44186.76, -51613.46, 187500.00, 140.28, -187500.02, -187500.02, 0.00, 0.00, 0.00
235, -46702.71, -26899.41, -44224.85, -51592.72, 187500.00, 176.80, -187500.02, -187500.02, 0.00, 0.00, 0.00
236, -46730.28, -27028.15, -44239.24, -51629.87, 187500.00, 159.21, -187500.02, -187500.02, 0.00, 0.00, 0.00
237, -46659.40, -27160.19, -44157.79, -51653.89, 187500.00, 101.45, -187500.02, -187500.02, 0.00, 0.00, 0.00
238, -46636.29, -27117.78, -44149.21, -51637.56, 187500.00, 86.50, -187500.02, -187500.02, 0.00, 0.00, 0.00
239, -46642.81, -26951.38, -44177.48, -51598.31, 187500.00, 109.37, -187500.02, -187500.02, 0.00, 0.00, 0.00
240, -46670.64, -26869.39, -44215.93, -51578.23, 187500.00, 140.84, -187500.02, -187500.02, 0.00, 0.00, 0.00
241, -46674.60, -26984.75, -44207.77, -51599.43, 187500.00, 136.64, -187500.02, -187500.02, 0.00, 0.00, 0.00
242, -46665.55, -27151.49, -44191.97, -51644.96, 187500.00, 97.39, -187500.02, -187500.02, 0.00, 0.00, 0.00
243, -46637.43, -27131.80, -44180.61, -51641.18, 187500.00, 79.86, -187500.02, -187500.02, 0.00, 0.00, 0.00
244, -46638.72, -26953.54, -44209.98, -51594.53, 187500.00, 123.00, -187500.02, -187500.02, 0.00, 0.00, 0.00
245, -46667.40, -26866.57, -44249.10, -51579.40, 187500.00, 174.50, -187500.02, -187500.02, 0.00, 0.00, 0.00
246, -46670.87, -26977.19, -44240.52, -51602.73, 187500.00, 181.47, -187500.02, -187500.02, 0.00, 0.00, 0.00
247, -46635.77, -27129.21, -44194.80, -51638.18, 187500.00, 143.57, -187500.02, -187500.02, 0.00, 0.00, 0.00
248, -46611.54, -27090.67, -44178.91, -51622.63, 187500.00, 138.13, -187500.02, -187500.02, 0.00, 0.00, 0.00
249, -46614.96, -26919.79, -44199.97, -51573.65, 187500.00, 172.47, -187500.02, -187500.02, 0.00, 0.00, 0.00
250, -46648.76, -26842.39, -44239.04, -51554.03, 187500.00, 211.63, -187500.02, -187500.02, 0.00, 0.00, 0.00
251, -46614.81, -26933.58, -44188.10, -51559.75, 187500.00, 209.23, -187500.02, -187500.02, 0.00, 0.00, 0.00
252, -46568.56, -27080.34, -44123.48, -51576.96, 187500.00, 168.11, -187500.02, -187500.02, 0.00, 0.00, 0.00
253, -46520.06, -27035.93, -44074.60, -51548.95, 187500.00, 156.95, -187500.02, -187500.02, 0.00, 0.00, 0.00
254, -46548.16, -26869.17, -44119.30, -51511.29, 187500.00, 187.67, -187500.02, -187500.02, 0.00, 0.00, 0.00
255, -46583.67, -26790.29, -44161.70, -51501.14, 187500.00, 215.87, -187500.02, -187500.02, 0.00, 0.00, 0.00
0, -46577.99, -26893.24, -44147.15, -51527.50, 187500.00, 199.71, -187500.02, -187500.02, 0.00, 0.00, 0.00
1, -46532.89, -27037.12, -44086.51, -51559.08, 187500.00, 148.59, -187500.02, -187500.02, 0.00, 0.00, 0.00
2, -46523.25, -27013.42, -44082.76, -51551.93, 187500.00, 133.26, -187500.02, -187500.02, 0.00, 0.00, 0.00
3, -46534.74, -26858.41, -44111.25, -51523.65, 187500.00, 149.94, -187500.02, -187500.02, 0.00, 0.00, 0.00
4, -46579.80, -26781.39, -44161.57, -51508.23, 187500.00, 190.06, -187500.02, -187500.02, 0.00, 0.00, 0.00
5, -46592.28, -26896.79, -44153.84, -51539.30, 187500.00, 183.73, -187500.02, -187500.02, 0.00, 0.00, 0.00
6, -46564.98, -27051.51, -44106.47, -51575.89, 187500.00, 140.93, -187500.02, -187500.02, 0.00, 0.00, 0.00
7, -46533.11, -27026.50, -44078.36, -51565.74, 187500.00, 124.83, -187500.02, -187500.02, 0.00, 0.00, 0.00
8, -46554.39, -26853.65, -44117.69, -51522.85, 187500.00, 162.34, -187500.02, -187500.02, 0.00, 0.00, 0.00
9, -46602.09, -26776.58, -44171.16, -51512.39, 187500.00, 202.95, -187500.02, -187500.02, 0.00, 0.00, 0.00
10, -46606.09, -26895.25, -44158.75, -51542.70, 187500.00, 193.25, -187500.02, -187500.02, 0.00, 0.00, 0.00
11, -46541.40, -27033.63, -44076.30, -51557.67, 187500.00, 152.42, -187500.02, -187500.02, 0.00, 0.00, 0.00
12, -46531.17, -27013.27, -44070.24, -51545.87, 187500.00, 148.35, -187500.02, -187500.02, 0.00, 0.00, 0.00
13, -46547.04, -26850.99, -44099.75, -51506.15, 187500.00, 184.69, -187500.02, -187500.02, 0.00, 0.00, 0.00
14, -46576.38, -26767.35, -44129.47, -51485.99, 187500.00, 224.23, -187500.02, -187500.02, 0.00, 0.00, 0.00
15, -46571.98, -26865.39, -44109.38, -51502.42, 187500.00, 231.21, -187500.02, -187500.02, 0.00, 0.00, 0.00
16, -46529.76, -27009.62, -44054.37, -51526.87, 187500.00, 200.03, -187500.02, -187500.02, 0.00, 0.00, 0.00
17, -46491.09, -26979.76, -44019.30, -51508.88, 187500.00, 191.02, -187500.02, -187500.02, 0.00, 0.00, 0.00
18, -46514.22, -26816.13, -44056.18, -51462.25, 187500.00, 235.43, -187500.02, -187500.02, 0.00, 0.00, 0.00
19, -46526.14, -26722.22, -44072.00, -51433.02, 187500.00, 277.99, -187500.02, -187500.02, 0.00, 0.00, 0.00
20, -46498.24, -26801.37, -44031.88, -51436.50, 187500.00, 284.02, -187500.02, -187500.02, 0.00, 0.00, 0.00
21, -46469.19, -26945.00, -43992.41, -51465.18, 187500.00, 250.12, -187500.02, -187500.02, 0.00, 0.00, 0.00
22, -46422.98, -26918.56, -43955.98, -51452.60, 187500.00, 233.98, -187500.02, -187500.02, 0.00, 0.00, 0.00
23, -46433.16, -26746.23, -43987.32, -51405.64, 187500.00, 274.17, -187500.02, -187500.02, 0.00, 0.00, 0.00
24, -46461.88, -26663.64, -44024.91, -51389.52, 187500.00, 313.53, -187500.02, -187500.02, 0.00, 0.00, 0.00
25, -46477.34, -26770.26, -44035.50, -51410.26, 187500.00, 316.90, -187500.02, -187500.02, 0.00, 0.00, 0.00
26, -46451.21, -26936.22, -44006.87, -51452.86, 187500.00, 268.36, -187500.02, -187500.02, 0.00, 0.00, 0.00
27, -46412.97, -26920.89, -43983.74, -51450.68, 187500.00, 244.53, -187500.02, -187500.02, 0.00, 0.00, 0.00
28, -46434.65, -26756.65, -44018.00, -51413.05, 187500.00, 276.96, -187500.02, -187500.02, 0.00, 0.00, 0.00
29, -46477.30, -26685.10, -44050.95, -51396.92, 187500.00, 316.81, -187500.02, -187500.02, 0.00, 0.00, 0.00
30, -46487.85, -26788.45, -44047.33, -51420.12, 187500.00, 318.02, -187500.02, -187500.02, 0.00, 0.00, 0.00
31, -46476.29, -26954.68, -44025.40, -51468.58, 187500.00, 263.88, -187500.02, -187500.02, 0.00, 0.00, 0.00
32, -46481.28, -26964.76, -44041.21, -51484.83, 187500.00, 224.32, -187500.02, -187500.02, 0.00, 0.00, 0.00
33, -46483.42, -26804.81, -44061.03, -51453.73, 187500.00, 228.73, -187500.02, -187500.02, 0.00, 0.00, 0.00
34, -46507.92, -26706.20, -44094.45, -51425.86, 187500.00, 260.29, -187500.02, -187500.02, 0.00, 0.00, 0.00
35, -46526.43, -26815.37, -44100.44, -51455.70, 187500.00, 246.38, -187500.02, -187500.02, 0.00, 0.00, 0.00
36, -46479.82, -26964.05, -44031.46, -51483.69, 187500.00, 203.85, -187500.02, -187500.02, 0.00, 0.00, 0.00
37, -46493.10, -26961.88, -44048.63, -51488.16, 187500.00, 194.93, -187500.02, -187500.02, 0.00, 0.00, 0.00
38, -46527.88, -26825.04, -44099.19, -51474.88, 187500.00, 212.45, -187500.02, -187500.02, 0.00, 0.00, 0.00
39, -46558.88, -26739.46, -44130.95, -51462.54, 187500.00, 244.10, -187500.02, -187500.02, 0.00, 0.00, 0.00
40, -46559.31, -26825.94, -44118.43, -51482.86, 187500.00, 237.67, -187500.02, -187500.02, 0.00, 0.00, 0.00
41, -46558.70, -26995.12, -44105.22, -51533.11, 187500.00, 179.06, -187500.02, -187500.02, 0.00, 0.00, 0.00
42, -46543.91, -27007.43, -44093.55, -51549.36, 187500.00, 134.98, -187500.02, -187500.02, 0.00, 0.00, 0.00
43, -46526.88, -26834.54, -44092.93, -51506.22, 187500.00, 150.67, -187500.02, -187500.02, 0.00, 0.00, 0.00
44, -46571.91, -26733.33, -44143.00, -51483.00, 187500.00, 190.12, -187500.02, -187500.02, 0.00, 0.00, 0.00
45, -46593.15, -26841.07, -44147.29, -51515.94, 187500.00, 178.21, -187500.02, -187500.02, 0.00, 0.00, 0.00
46, -46542.61, -26992.44, -44076.41, -51545.80, 187500.00, 130.56, -187500.02, -187500.02, 0.00, 0.00, 0.00
47, -46521.96, -26973.50, -44061.79, -51532.08, 187500.00, 115.31, -187500.02, -187500.02, 0.00, 0.00, 0.00
48, -46517.44, -26802.94, -44078.36, -51490.73, 187500.00, 135.43, -187500.02, -187500.02, 0.00, 0.00, 0.00
49, -46547.44, -26699.09, -44119.19, -51465.02, 187500.00, 179.51, -187500.02, -187500.02, 0.00, 0.00, 0.00
50, -46543.93, -26785.82, -44102.96, -51483.38, 187500.00, 182.81, -187500.02, -187500.02, 0.00, 0.00, 0.00
51, -46509.89, -26941.52, -44057.48, -51514.06, 187500.00, 144.82, -187500.02, -187500.02, 0.00, 0.00, 0.00
52, -46476.16, -26937.70, -44030.05, -51510.13, 187500.00, 126.22, -187500.02, -187500.02, 0.00, 0.00, 0.00
53, -46463.93, -26761.47, -44035.64, -51457.43, 187500.00, 160.37, -187500.02, -187500.02, 0.00, 0.00, 0.00
54, -46500.97, -26666.68, -44083.09, -51431.79, 187500.00, 201.23, -187500.02, -187500.02, 0.00, 0.00, 0.00
55, -46519.95, -26764.85, -44087.90, -51452.33, 187500.00, 199.36, -187500.02, -187500.02, 0.00, 0.00, 0.00
56, -46509.26, -26935.39, -44060.70, -51498.73, 187500.00, 142.29, -187500.02, -187500.02, 0.00, 0.00, 0.00
57, -46475.00, -26932.11, -44032.69, -51498.11, 187500.00, 106.91, -187500.02, -187500.02, 0.00, 0.00, 0.00
58, -46472.98, -26767.33, -44054.50, -51458.45, 187500.00, 121.86, -187500.02, -187500.02, 0.00, 0.00, 0.00
59, -46503.23, -26667.29, -44096.93, -51435.25, 187500.00, 157.47, -187500.02, -187500.02, 0.00, 0.00, 0.00
60, -46534.07, -26777.52, -44106.94, -51467.93, 187500.00, 154.88, -187500.02, -187500.02, 0.00, 0.00, 0.00
61, -46497.53, -26938.75, -44048.38, -51504.54, 187500.00, 98.64, -187500.02, -187500.02, 0.00, 0.00, 0.00
62, -46477.81, -26936.40, -44024.89, -51501.01, 187500.00, 66.36, -187500.02, -187500.02, 0.00, 0.00, 0.00
63, -46470.86, -26762.99, -44032.96, -51451.93, 187500.00, 88.83, -187500.02, -187500.02, 0.00, 0.00, 0.00
64, -46510.20, -26659.97, -44077.84, -51428.77, 187500.00, 127.83, -187500.02, -187500.02, 0.00, 0.00, 0.00
65, -46507.95, -26748.18, -44061.90, -51446.92, 187500.00, 126.20, -187500.02, -187500.02, 0.00, 0.00, 0.00
66, -46498.02, -26916.30, -44037.94, -51487.06, 187500.00, 86.72, -187500.02, -187500.02, 0.00, 0.00, 0.00
67, -46451.57, -26909.91, -43992.34, -51481.45, 187500.00, 58.32, -187500.02, -187500.02, 0.00, 0.00, 0.00
68, -46441.25, -26732.06, -43995.79, -51423.05, 187500.00, 93.74, -187500.02, -187500.02, 0.00, 0.00, 0.00
69, -46459.15, -26620.79, -44018.70, -51386.91, 187500.00, 144.48, -187500.02, -187500.02, 0.00, 0.00, 0.00
70, -46443.70, -26687.58, -43987.65, -51385.56, 187500.00, 157.20, -187500.02, -187500.02, 0.00, 0.00, 0.00
71, -46417.60, -26837.54, -43943.66, -51413.50, 187500.00, 123.38, -187500.02, -187500.02, 0.00, 0.00, 0.00
72, -46370.73, -26825.98, -43896.46, -51398.50, 187500.00, 102.33, -187500.02, -187500.02, 0.00, 0.00, 0.00
73, -46366.17, -26646.21, -43907.00, -51336.90, 187500.00, 140.82, -187500.02, -187500.02, 0.00, 0.00, 0.00
74, -46392.34, -26543.28, -43941.74, -51305.39, 187500.00, 187.80, -187500.02, -187500.02, 0.00, 0.00, 0.00
75, -46366.37, -26601.23, -43908.04, -51304.18, 187500.00, 202.80, -187500.02, -187500.02, 0.00, 0.00, 0.00
76, -46339.66, -26750.50, -43867.75, -51331.14, 187500.00, 173.70, -187500.02, -187500.02, 0.00, 0.00, 0.00
77, -46346.95, -26769.99, -43877.95, -51338.18, 187500.00, 151.81, -187500.02, -187500.02, 0.00, 0.00, 0.00
78, -46337.24, -26611.56, -43885.73, -51300.38, 187500.00, 169.54, -187500.02, -187500.02, 0.00, 0.00, 0.00
79, -46338.47, -26486.17, -43893.44, -51247.77, 187500.00, 236.26, -187500.02, -187500.02, 0.00, 0.00, 0.00
80, -46340.44, -26556.91, -43882.08, -51251.45, 187500.00, 270.99, -187500.02, -187500.02, 0.00, 0.00, 0.00
81, -46290.08, -26699.56, -43808.93, -51272.02, 187500.00, 251.26, -187500.02, -187500.02, 0.00, 0.00, 0.00
82, -46275.08, -26708.93, -43794.71, -51264.89, 187500.00, 246.29, -187500.02, -187500.02, 0.00, 0.00, 0.00
83, -46274.57, -26553.96, -43811.99, -51225.88, 187500.00, 271.62, -187500.02, -187500.02, 0.00, 0.00, 0.00
84, -46271.69, -26417.73, -43820.75, -51182.79, 187500.00, 321.93, -187500.02, -187500.02, 0.00, 0.00, 0.00
85, -46269.96, -26478.63, -43811.74, -51188.89, 187500.00, 338.03, -187500.02, -187500.02, 0.00, 0.00, 0.00
86, -46247.28, -26633.51, -43773.25, -51225.93, 187500.00, 295.65, -187500.02, -187500.02, 0.00, 0.00, 0.00
87, -46228.46, -26636.60, -43758.14, -51222.02, 187500.00, 279.93, -187500.02, -187500.02, 0.00, 0.00, 0.00
88, -46245.87, -26493.01, -43797.08, -51188.87, 187500.00, 298.69, -187500.02, -187500.02, 0.00, 0.00, 0.00
89, -46295.18, -26399.71, -43855.60, -51171.61, 187500.00, 336.01, -187500.02, -187500.02, 0.00, 0.00, 0.00
90, -46317.08, -26495.51, -43864.00, -51203.29, 187500.00, 336.26, -187500.02, -187500.02, 0.00, 0.00, 0.00
91, -46245.89, -26632.04, -43766.73, -51222.26, 187500.00, 298.13, -187500.02, -187500.02, 0.00, 0.00, 0.00
92, -46219.23, -26625.22, -43743.39, -51204.74, 187500.00, 289.52, -187500.02, -187500.02, 0.00, 0.00, 0.00
93, -46244.57, -26487.11, -43783.51, -51179.50, 187500.00, 302.60, -187500.02, -187500.02, 0.00, 0.00, 0.00
94, -46252.02, -26364.60, -43800.66, -51147.70, 187500.00, 341.09, -187500.02, -187500.02, 0.00, 0.00, 0.00
95, -46265.45, -26437.96, -43802.73, -51160.70, 187500.00, 350.83, -187500.02, -187500.02, 0.00, 0.00, 0.00
96, -46265.74, -26608.77, -43782.06, -51206.37, 187500.00, 307.52, -187500.02, -187500.02, 0.00, 0.00, 0.00
97, -46247.57, -26632.57, -43760.76, -51214.86, 187500.00, 270.75, -187500.02, -187500.02, 0.00, 0.00, 0.00
98, -46253.13, -26478.81, -43778.97, -51182.74, 187500.00, 284.60, -187500.02, -187500.02, 0.00, 0.00, 0.00
99, -46273.03, -26357.00, -43807.54, -51147.56, 187500.00, 324.39, -187500.02, -187500.02, 0.00, 0.00, 0.00
100, -46304.72, -26448.48, -43826.05, -51178.18, 187500.00, 319.65, -187500.02, -187500.02, 0.00, 0.00, 0.00
101, -46255.50, -26601.01, -43761.47, -51209.45, 187500.00, 273.72, -187500.02, -187500.02, 0.00, 0.00, 0.00
102, -46251.68, -26625.62, -43764.91, -51215.98, 187500.00, 249.07, -187500.02, -187500.02, 0.00, 0.00, 0.00
103, -46252.73, -26483.58, -43783.80, -51185.70, 187500.00, 249.36, -187500.02, -187500.02, 0.00, 0.00, 0.00
104, -46292.61, -26380.40, -43832.75, -51168.42, 187500.00, 272.65, -187500.02, -187500.02, 0.00, 0.00, 0.00
105, -46305.46, -26461.51, -43833.42, -51187.97, 187500.00, 276.69, -187500.02, -187500.02, 0.00, 0.00, 0.00
106, -46299.65, -26632.71, -43819.43, -51242.56, 187500.00, 228.75, -187500.02, -187500.02, 0.00, 0.00, 0.00
107, -46294.53, -26665.05, -43815.32, -51269.47, 187500.00, 190.62, -187500.02, -187500.02, 0.00, 0.00, 0.00
108, -46307.88, -26530.16, -43835.12, -51244.59, 187500.00, 207.63, -187500.02, -187500.02, 0.00, 0.00, 0.00
109, -46340.48, -26414.75, -43873.99, -51218.80, 187500.00, 252.04, -187500.02, -187500.02, 0.00, 0.00, 0.00
110, -46355.97, -26493.72, -43880.32, -51236.43, 187500.00, 259.44, -187500.02, -187500.02, 0.00, 0.00, 0.00
111, -46339.28, -26664.42, -43849.27, -51283.77, 187500.00, 215.22, -187500.02, -187500.02, 0.00, 0.00, 0.00
112, -46332.97, -26697.79, -43843.66, -51300.29, 187500.00, 184.98, -187500.02, -187500.02, 0.00, 0.00, 0.00
113, -46319.72, -26546.85, -43850.34, -51262.59, 187500.00, 189.52, -187500.02, -187500.02, 0.00, 0.00, 0.00
114, -46355.35, -26431.34, -43889.35, -51234.60, 187500.00, 225.33, -187500.02, -187500.02, 0.00, 0.00, 0.00
115, -46353.87, -26500.63, -43856.09, -51237.26, 187500.00, 227.99, -187500.02, -187500.02, 0.00, 0.00, 0.00
116, -46327.36, -26660.02, -43803.56, -51264.66, 187500.00, 182.57, -187500.02, -187500.02, 0.00, 0.00, 0.00
117, -46288.25, -26671.20, -43750.45, -51257.11, 187500.00, 146.25, -187500.02, -187500.02, 0.00, 0.00, 0.00
118, -46279.24, -26509.48, -43747.68, -51206.26, 187500.00, 167.71, -187500.02, -187500.02, 0.00, 0.00, 0.00
119, -46283.84, -26379.35, -43763.95, -51165.24, 187500.00, 204.03, -187500.02, -187500.02, 0.00, 0.00, 0.00
120, -46266.88, -26426.96, -43733.15, -51155.14, 187500.00, 213.53, -187500.02, -187500.02, 0.00, 0.00, 0.00
121, -46251.70, -26581.19, -43696.81, -51180.87, 187500.00, 182.93, -187500.02, -187500.02, 0.00, 0.00, 0.00
122, -46221.35, -26606.93, -43667.35, -51185.56, 187500.00, 148.08, -187500.02, -187500.02, 0.00, 0.00, 0.00
123, -46203.11, -26459.84, -43665.41, -51145.04, 187500.00, 161.67, -187500.02, -187500.02, 0.00, 0.00, 0.00
124, -46215.00, -26319.42, -43679.33, -51099.86, 187500.00, 216.95, -187500.02, -187500.02, 0.00, 0.00, 0.00
125, -46213.13, -26373.96, -43660.27, -51103.80, 187500.00, 243.59, -187500.02, -187500.02, 0.00, 0.00, 0.00
126, -46177.41, -26520.93, -43604.95, -51130.44, 187500.00, 225.55, -187500.02, -187500.02, 0.00, 0.00, 0.00
127, -46128.39, -26531.61, -43558.32, -51123.07, 187500.00, 210.24, -187500.02, -187500.02, 0.00, 0.00, 0.00
128, -46111.76, -26369.40, -43548.39, -51069.09, 187500.00, 243.86, -187500.02, -187500.02, 0.00, 0.00, 0.00
129, -46136.05, -26236.95, -43573.47, -51025.59, 187500.00, 293.39, -187500.02, -187500.02, 0.00, 0.00, 0.00
130, -46143.72, -26303.44, -43561.80, -51030.04, 187500.00, 308.48, -187500.02, -187500.02, 0.00, 0.00, 0.00
131, -46085.41, -26447.83, -43480.36, -51045.26, 187500.00, 290.71, -187500.02, -187500.02, 0.00, 0.00, 0.00
132, -46048.37, -26460.78, -43439.25, -51029.23, 187500.00, 291.35, -187500.02, -187500.02, 0.00, 0.00, 0.00
133, -46039.61, -26298.30, -43438.00, -50979.52, 187500.00, 326.38, -187500.02, -187500.02, 0.00, 0.00, 0.00
134, -46072.84, -26181.40, -43469.83, -50942.55, 187500.00, 380.38, -187500.02, -187500.02, 0.00, 0.00, 0.00
135, -46081.94, -26251.16, -43456.04, -50949.66, 187500.00, 405.10, -187500.02, -187500.02, 0.00, 0.00, 0.00
136, -46042.85, -26400.16, -43387.57, -50965.30, 187500.00, 389.12, -187500.02, -187500.02, 0.00, 0.00, 0.00
137, -46021.64, -26417.66, -43363.55, -50948.48, 187500.00, 374.55, -187500.02, -187500.02, 0.00, 0.00, 0.00
138, -46028.57, -26267.46, -43378.99, -50894.41, 187500.00, 389.01, -187500.02, -187500.02, 0.00, 0.00, 0.00
139, -46046.52, -26136.77, -43401.27, -50846.24, 187500.00, 417.73, -187500.02, -187500.02, 0.00, 0.00, 0.00
140, -46064.29, -26198.32, -43403.09, -50845.70, 187500.00, 418.89, -187500.02, -187500.02, 0.00, 0.00, 0.00
141, -46036.81, -26362.83, -43354.98, -50872.55, 187500.00, 378.48, -187500.02, -187500.02, 0.00, 0.00, 0.00
142, -46036.37, -26413.19, -43359.16, -50887.12, 187500.00, 341.98, -187500.02, -187500.02, 0.00, 0.00, 0.00
143, -46059.63, -26297.07, -43397.92, -50874.22, 187500.00, 327.56, -187500.02, -187500.02, 0.00, 0.00, 0.00
144, -46088.69, -26194.39, -43434.89, -50848.81, 187500.00, 342.27, -187500.02, -187500.02, 0.00, 0.00, 0.00
145, -46106.06, -26262.11, -43443.09, -50858.31, 187500.00, 342.09, -187500.02, -187500.02, 0.00, 0.00, 0.00
146, -46100.72, -26435.65, -43423.36, -50901.54, 187500.00, 307.40, -187500.02, -187500.02, 0.00, 0.00, 0.00
147, -46087.26, -26480.00, -43414.29, -50914.97, 187500.00, 284.72, -187500.02, -187500.02, 0.00, 0.00, 0.00
148, -46125.19, -26366.54, -43466.30, -50899.64, 187500.00, 300.54, -187500.02, -187500.02, 0.00, 0.00, 0.00
149, -46149.91, -26254.83, -43500.94, -50869.89, 187500.00, 339.52, -187500.02, -187500.02, 0.00, 0.00, 0.00
150, -46160.44, -26315.38, -43495.96, -50877.51, 187500.00, 353.69, -187500.02, -187500.02, 0.00, 0.00, 0.00
151, -46137.91, -26486.19, -43451.10, -50914.12, 187500.00, 326.51, -187500.02, -187500.02, 0.00, 0.00, 0.00
152, -46124.81, -26528.97, -43440.48, -50927.71, 187500.00, 305.32, -187500.02, -187500.02, 0.00, 0.00, 0.00
153, -46145.29, -26403.15, -43485.96, -50896.66, 187500.00, 319.92, -187500.02, -187500.02, 0.00, 0.00, 0.00
154, -46165.54, -26277.40, -43521.97, -50841.54, 187500.00, 364.09, -187500.02, -187500.02, 0.00, 0.00, 0.00
155, -46158.90, -26327.09, -43507.98, -50816.67, 187500.00, 378.39, -187500.02, -187500.02, 0.00, 0.00, 0.00
156, -46136.32, -26476.29, -43470.57, -50824.42, 187500.00, 351.24, -187500.02, -187500.02, 0.00, 0.00, 0.00
157, -46127.83, -26524.52, -43460.06, -50820.45, 187500.00, 324.86, -187500.02, -187500.02, 0.00, 0.00, 0.00
158, -46139.45, -26397.25, -43489.39, -50774.69, 187500.00, 332.30, -187500.02, -187500.02, 0.00, 0.00, 0.00
159, -46162.43, -26272.87, -43517.21, -50724.46, 187500.00, 359.82, -187500.02, -187500.02, 0.00, 0.00, 0.00
160, -46174.05, -26318.55, -43520.86, -50702.43, 187500.00, 368.67, -187500.02, -187500.02, 0.00, 0.00, 0.00
161, -46160.69, -26482.03, -43493.97, -50733.12, 187500.00, 315.61, -187500.02, -187500.02, 0.00, 0.00, 0.00
162, -46131.25, -26518.42, -43470.68, -50735.30, 187500.00, 274.21, -187500.02, -187500.02, 0.00, 0.00, 0.00
163, -46127.41, -26379.46, -43487.26, -50696.39, 187500.00, 276.00, -187500.02, -187500.02, 0.00, 0.00, 0.00
164, -46158.65, -26257.24, -43536.26, -50662.37, 187500.00, 301.48, -187500.02, -187500.02, 0.00, 0.00, 0.00
165, -46146.25, -26298.59, -43524.79, -50667.47, 187500.00, 302.17, -187500.02, -187500.02, 0.00, 0.00, 0.00
166, -46121.39, -26443.21, -43476.18, -50685.95, 187500.00, 285.66, -187500.02, -187500.02, 0.00, 0.00, 0.00
167, -46122.82, -26492.20, -43468.87, -50694.52, 187500.00, 268.02, -187500.02, -187500.02, 0.00, 0.00, 0.00
168, -46145.22, -26382.79, -43507.94, -50676.72, 187500.00, 269.09, -187500.02, -187500.02, 0.00, 0.00, 0.00
169, -46170.03, -26267.21, -43539.21, -50637.76, 187500.00, 306.96, -187500.02, -187500.02, 0.00, 0.00, 0.00
170, -46203.42, -26332.37, -43557.58, -50641.94, 187500.00, 326.02, -187500.02, -187500.02, 0.00, 0.00, 0.00
171, -46194.73, -26498.28, -43534.13, -50682.33, 187500.00, 290.22, -187500.02, -187500.02, 0.00, 0.00, 0.00
172, -46177.63, -26538.92, -43521.10, -50695.57, 187500.00, 254.47, -187500.02, -187500.02, 0.00, 0.00, 0.00
173, -46171.89, -26394.95, -43534.89, -50661.55, 187500.00, 255.91, -187500.02, -187500.02, 0.00, 0.00, 0.00
174, -46192.16, -26263.34, -43559.95, -50618.54, 187500.00, 291.20, -187500.02, -187500.02, 0.00, 0.00, 0.00
175, -46201.64, -26310.28, -43548.73, -50608.08, 187500.00, 309.71, -187500.02, -187500.02, 0.00, 0.00, 0.00
176, -46203.76, -26481.05, -43528.37, -50639.13, 187500.00, 277.56, -187500.02, -187500.02, 0.00, 0.00, 0.00
177, -46217.95, -26557.31, -43540.44, -50658.04, 187500.00, 230.20, -187500.02, -187500.02, 0.00, 0.00, 0.00
178, -46237.27, -26448.13, -43574.21, -50632.67, 187500.00, 224.26, -187500.02, -187500.02, 0.00, 0.00, 0.00
179, -46295.13, -26343.63, -43639.45, -50607.97, 187500.00, 245.11, -187500.02, -187500.02, 0.00, 0.00, 0.00
180, -46332.50, -26413.32, -43663.89, -50627.97, 187500.00, 236.82, -187500.02, -187500.02, 0.00, 0.00, 0.00
181, -46327.25, -26592.74, -43638.45, -50676.28, 187500.00, 185.09, -187500.02, -187500.02, 0.00, 0.00, 0.00
182, -46332.68, -26647.50, -43642.09, -50701.49, 187500.00, 138.89, -187500.02, -187500.02, 0.00, 0.00, 0.00
183, -46348.84, -26522.00, -43672.04, -50684.95, 187500.00, 124.86, -187500.02, -187500.02, 0.00, 0.00, 0.00
184, -46396.50, -26408.99, -43729.49, -50659.20, 187500.00, 147.37, -187500.02, -187500.02, 0.00, 0.00, 0.00
185, -46423.88, -26470.81, -43740.73, -50672.30, 187500.00, 143.32, -187500.02, -187500.02, 0.00, 0.00, 0.00
186, -46390.06, -26622.09, -43685.97, -50707.97, 187500.00, 98.28, -187500.02, -187500.02, 0.00, 0.00, 0.00
187, -46382.77, -26670.48, -43684.05, -50726.19, 187500.00, 62.05, -187500.02, -187500.02, 0.00, 0.00, 0.00
188, -46402.13, -26553.29, -43711.61, -50708.44, 187500.00, 57.76, -187500.02, -187500.02, 0.00, 0.00, 0.00
189, -46458.17, -26439.36, -43773.01, -50687.14, 187500.00, 82.34, -187500.02, -187500.02, 0.00, 0.00, 0.00
190, -46493.37, -26507.18, -43796.12, -50711.21, 187500.00, 78.21, -187500.02, -187500.02, 0.00, 0.00, 0.00
191, -46472.23, -26667.22, -43750.72, -50751.89, 187500.00, 37.19, -187500.02, -187500.02, 0.00, 0.00, 0.00
192, -46434.77, -26713.04, -43700.77, -50764.52, 187500.00, 2.55, -187500.02, -187500.02, 0.00, 0.00, 0.00
193, -46454.28, -26583.85, -43733.58, -50728.71, 187500.00, 18.48, -187500.02, -187500.02, 0.00, 0.00, 0.00
194, -46500.88, -26467.50, -43786.55, -50711.66, 187500.00, 36.79, -187500.02, -187500.02, 0.00, 0.00, 0.00
195, -46513.18, -26506.87, -43785.32, -50714.07, 187500.00, 42.47, -187500.02, -187500.02, 0.00, 0.00, 0.00
196, -46497.59, -26667.98, -43750.77, -50748.11, 187500.00, 12.52, -187500.02, -187500.02, 0.00, 0.00, 0.00
197, -46452.20, -26708.10, -43702.11, -50758.78, 187500.00, -23.54, -187500.02, -187500.02, 0.00, 0.00, 0.00
198, -46456.45, -26568.11, -43724.70, -50718.59, 187500.00, -11.71, -187500.02, -187500.02, 0.00, 0.00, 0.00
199, -46508.61, -26452.98, -43784.79, -50697.87, 187500.00, 12.20, -187500.02, -187500.02, 0.00, 0.00, 0.00
200, -46529.80, -26496.07, -43794.71, -50703.34, 187500.00, 22.22, -187500.02, -187500.02, 0.00, 0.00, 0.00
201, -46522.96, -26666.72, -43767.13, -50749.81, 187500.00, -12.61, -187500.02, -187500.02, 0.00, 0.00, 0.00
202, -46498.80, -26728.15, -43738.50, -50771.92, 187500.00, -49.93, -187500.02, -187500.02, 0.00, 0.00, 0.00
203, -46511.54, -26613.35, -43768.11, -50746.91, 187500.00, -48.03, -187500.02, -187500.02, 0.00, 0.00, 0.00
204, -46554.99, -26496.54, -43820.17, -50728.58, 187500.00, -30.33, -187500.02, -187500.02, 0.00, 0.00, 0.00
205, -46552.89, -26531.16, -43805.26, -50731.02, 187500.00, -24.72, -187500.02, -187500.02, 0.00, 0.00, 0.00
206, -46569.05, -26710.74, -43803.88, -50779.12, 187500.00, -56.46, -187500.02, -187500.02, 0.00, 0.00, 0.00
207, -46584.30, -26795.29, -43816.26, -50823.82, 187500.00, -105.25, -187500.02, -187500.02, 0.00, 0.00, 0.00
208, -46583.47, -26677.01, -43837.60, -50810.97, 187500.00, -114.08, -187500.02, -187500.02, 0.00, 0.00, 0.00
209, -46602.00, -26539.05, -43874.24, -50778.80, 187500.00, -84.20, -187500.02, -187500.02, 0.00, 0.00, 0.00
210, -46628.42, -26581.68, -43893.97, -50787.39, 187500.00, -73.02, -187500.02, -187500.02, 0.00, 0.00, 0.00
211, -46628.93, -26752.33, -43869.03, -50840.43, 187500.00, -116.05, -187500.02, -187500.02, 0.00, 0.00, 0.00
212, -46612.93, -26813.87, -43848.15, -50865.46, 187500.00, -158.12, -187500.02, -187500.02, 0.00, 0.00, 0.00
213, -46606.87, -26697.66, -43855.98, -50840.92, 187500.00, -151.03, -187500.02, -187500.02, 0.00, 0.00, 0.00
214, -46643.86, -26570.88, -43903.54, -50800.98, 187500.00, -99.62, -187500.02, -187500.02, 0.00, 0.00, 0.00
215, -46676.45, -26625.98, -43922.20, -50812.35, 187500.00, -79.42, -187500.02, -187500.02, 0.00, 0.00, 0.00
216, -46671.58, -26787.60, -43897.04, -50853.32, 187500.00, -110.40, -187500.02, -187500.02, 0.00, 0.00, 0.00
217, -46677.84, -26862.53, -43898.54, -50881.09, 187500.00, -152.71, -187500.02, -187500.02, 0.00, 0.00, 0.00
218, -46663.91, -26747.91, -43900.30, -50862.38, 187500.00, -173.07, -187500.02, -187500.02, 0.00, 0.00, 0.00
219, -46664.07, -26590.33, -43917.04, -50812.58, 187500.00, -144.30, -187500.02, -187500.02, 0.00, 0.00, 0.00
220, -46701.87, -26630.07, -43948.87, -50821.85, 187500.00, -136.39, -187500.02, -187500.02, 0.00, 0.00, 0.00
221, -46713.71, -26814.31, -43933.89, -50877.89, 187500.00, -184.04, -187500.02, -187500.02, 0.00, 0.00, 0.00
222, -46703.03, -26895.88, -43907.25, -50911.24, 187500.00, -241.94, -187500.02, -187500.02, 0.00, 0.00, 0.00
223, -46709.20, -26778.78, -43924.13, -50883.01, 187500.00, -251.26, -187500.02, -187500.02, 0.00, 0.00, 0.00
224, -46759.76, -26658.63, -43989.95, -50860.68, 187500.00, -223.34, -187500.02, -187500.02, 0.00, 0.00, 0.00
225, -46797.09, -26722.05, -44022.72, -50888.28, 187500.00, -218.44, -187500.02, -187500.02, 0.00, 0.00, 0.00
226, -46783.21, -26888.79, -43990.40, -50931.55, 187500.00, -247.55, -187500.02, -187500.02, 0.00, 0.00, 0.00
227, -46766.26, -26952.58, -43975.43, -50960.99, 187500.00, -279.55, -187500.02, -187500.02, 0.00, 0.00, 0.00
228, -46738.75, -26820.51, -43965.68, -50927.89, 187500.00, -269.16, -187500.02, -187500.02, 0.00, 0.00, 0.00
229, -46745.66, -26674.01, -43985.62, -50875.18, 187500.00, -218.73, -187500.02, -187500.02, 0.00, 0.00, 0.00
230, -46760.90, -26703.00, -43994.58, -50870.80, 187500.00, -196.94, -187500.02, -187500.02, 0.00, 0.00, 0.00
231, -46770.02, -26876.05, -43992.07, -50913.88, 187500.00, -231.32, -187500.02, -187500.02, 0.00, 0.00, 0.00
232, -46749.95, -26954.24, -43977.10, -50948.54, 187500.00, -286.75, -187500.02, -187500.02, 0.00, 0.00, 0.00
233, -46755.13, -26834.30, -43992.72, -50924.85, 187500.00, -292.25, -187500.02, -187500.02, 0.00, 0.00, 0.00
234, -46759.09, -26679.49, -43991.16, -50860.99, 187500.00, -246.90, -187500.02, -187500.02, 0.00, 0.00, 0.00
235, -46780.07, -26704.66, -44001.13, -50845.99, 187500.00, -223.43, -187500.02, -187500.02, 0.00, 0.00, 0.00
236, -46767.65, -26862.48, -43976.99, -50887.03, 187500.00, -260.31, -187500.02, -187500.02, 0.00, 0.00, 0.00
237, -46734.77, -26924.64, -43939.86, -50903.08, 187500.00, -302.51, -187500.02, -187500.02, 0.00, 0.00, 0.00
238, -46713.78, -26797.53, -43931.55, -50861.66, 187500.00, -299.65, -187500.02, -187500.02, 0.00, 0.00, 0.00
239, -46713.89, -26632.82, -43943.28, -50799.43, 187500.00, -254.47, -187500.02, -187500.02, 0.00, 0.00, 0.00
240, -46746.75, -26662.52, -43969.84, -50797.96, 187500.00, -234.74, -187500.02, -187500.02, 0.00, 0.00, 0.00
241, -46739.57, -26822.67, -43946.21, -50833.05, 187500.00, -262.10, -187500.02, -187500.02, 0.00, 0.00, 0.00
242, -46743.73, -26913.42, -43945.41, -50864.05, 187500.00, -302.02, -187500.02, -187500.02, 0.00, 0.00, 0.00
243, -46752.27, -26805.15, -43971.29, -50847.36, 187500.00, -302.33, -187500.02, -187500.02, 0.00, 0.00, 0.00
244, -46785.82, -26675.80, -44025.27, -50822.05, 187500.00, -274.28, -187500.02, -187500.02, 0.00, 0.00, 0.00
245, -46787.32, -26702.42, -44021.63, -50818.30, 187500.00, -258.10, -187500.02, -187500.02, 0.00, 0.00, 0.00
246, -46760.09, -26844.22, -43975.47, -50853.48, 187500.00, -285.97, -187500.02, -187500.02, 0.00, 0.00, 0.00
247, -46729.76, -26896.14, -43938.52, -50862.40, 187500.00, -315.83, -187500.02, -187500.02, 0.00, 0.00, 0.00
248, -46753.72, -26797.60, -43972.90, -50841.63, 187500.00, -318.87, -187500.02, -187500.02, 0.00, 0.00, 0.00
249, -46788.82, -26671.08, -44015.03, -50813.27, 187500.00, -298.60, -187500.02, -187500.02, 0.00, 0.00, 0.00
250, -46791.05, -26693.70, -44010.23, -50812.09, 187500.00, -284.29, -187500.02, -187500.02, 0.00, 0.00, 0.00
251, -46789.71, -26854.26, -43988.86, -50852.07, 187500.00, -311.99, -187500.02, -187500.02, 0.00, 0.00, 0.00
252, -46765.37, -26921.74, -43956.98, -50875.50, 187500.00, -353.45, -187500.02, -187500.02, 0.00, 0.00, 0.00
253, -46749.43, -26799.27, -43956.94, -50845.48, 187500.00, -349.49, -187500.02, -187500.02, 0.00, 0.00, 0.00
254, -46783.05, -26664.60, -44001.29, -50804.30, 187500.00, -308.45, -187500.02, -187500.02, 0.00, 0.00, 0.00
255, -46803.48, -26689.72, -44014.36, -50798.25, 187500.00, -281.21, -187500.02, -187500.02, 0.00, 0.00, 0.00
0, -46808.26, -26855.91, -44001.11, -50843.31, 187500.00, -303.13, -187500.02, -187500.02, 0.00, 0.00, 0.00
1, -46791.18, -26930.01, -43981.73, -50871.05, 187500.00, -336.04, -187500.02, -187500.02, 0.00, 0.00, 0.00
2, -46782.78, -26809.55, -43991.92, -50839.60, 187500.00, -328.44, -187500.02, -187500.02, 0.00, 0.00, 0.00
3, -46785.98, -26654.83, -44009.06, -50788.79, 187500.00, -295.62, -187500.02, -187500.02, 0.00, 0.00, 0.00
4, -46817.49, -26679.04, -44032.69, -50785.48, 187500.00, -269.52, -187500.02, -187500.02, 0.00, 0.00, 0.00
5, -46811.86, -26851.73, -44004.23, -50831.31, 187500.00, -303.45, -187500.02, -187500.02, 0.00, 0.00, 0.00
6, -46788.28, -26925.16, -43973.05, -50842.93, 187500.00, -338.65, -187500.02, -187500.02, 0.00, 0.00, 0.00
7, -46816.49, -26833.02, -44020.86, -50829.72, 187500.00, -344.17, -187500.02, -187500.02, 0.00, 0.00, 0.00
8, -46833.81, -26699.27, -44055.60, -50800.86, 187500.00, -329.96, -187500.02, -187500.02, 0.00, 0.00, 0.00
9, -46834.37, -26701.26, -44048.13, -50791.92, 187500.00, -327.90, -187500.02, -187500.02, 0.00, 0.00, 0.00
10, -46813.07, -26842.48, -44005.96, -50819.66, 187500.00, -362.30, -187500.02, -187500.02, 0.00, 0.00, 0.00
11, -46782.18, -26904.71, -43969.05, -50832.09, 187500.00, -398.78, -187500.02, -187500.02, 0.00, 0.00, 0.00
12, -46793.20, -26793.06, -43990.58, -50809.52, 187500.00, -394.75, -187500.02, -187500.02, 0.00, 0.00, 0.00
13, -46825.61, -26665.09, -44035.17, -50777.55, 187500.00, -359.51, -187500.02, -187500.02, 0.00, 0.00, 0.00
14, -46847.94, -26687.91, -44051.53, -50777.84, 187500.00, -345.09, -187500.02, -187500.02, 0.00, 0.00, 0.00
15, -46832.38, -26851.37, -44019.10, -50818.48, 187500.00, -374.64, -187500.02, -187500.02, 0.00, 0.00, 0.00
16, -46798.89, -26923.95, -43984.81, -50836.85, 187500.00, -408.79, -187500.02, -187500.02, 0.00, 0.00, 0.00
17, -46826.14, -26819.88, -44026.32, -50817.83, 187500.00, -402.71, -187500.02, -187500.02, 0.00, 0.00, 0.00
18, -46866.93, -26693.03, -44077.66, -50796.66, 187500.00, -379.47, -187500.02, -187500.02, 0.00, 0.00, 0.00
19, -46868.63, -26706.76, -44071.11, -50791.14, 187500.00, -368.85, -187500.02, -187500.02, 0.00, 0.00, 0.00
20, -46857.05, -26867.49, -44042.59, -50827.95, 187500.00, -396.25, -187500.02, -187500.02, 0.00, 0.00, 0.00
21, -46795.86, -26927.57, -43973.55, -50834.30, 187500.00, -429.20, -187500.02, -187500.02, 0.00, 0.00, 0.00
22, -46806.07, -26805.31, -43998.91, -50797.64, 187500.00, -406.85, -187500.02, -187500.02, 0.00, 0.00, 0.00
23, -46843.71, -26670.86, -44053.83, -50770.98, 187500.00, -379.55, -187500.02, -187500.02, 0.00, 0.00, 0.00
24, -46841.45, -26677.52, -44048.56, -50754.35, 187500.00, -359.68, -187500.02, -187500.02, 0.00, 0.00, 0.00
25, -46841.39, -26836.11, -44026.30, -50785.22, 187500.00, -375.87, -187500.02, -187500.02, 0.00, 0.00, 0.00
26, -46798.83, -26903.36, -43977.55, -50793.62, 187500.00, -405.26, -187500.02, -187500.02, 0.00, 0.00, 0.00
27, -46785.82, -26782.06, -43980.14, -50759.16, 187500.00, -398.91, -187500.02, -187500.02, 0.00, 0.00, 0.00
28, -46821.85, -26640.80, -44028.78, -50719.26, 187500.00, -359.06, -187500.02, -187500.02, 0.00, 0.00, 0.00
29, -46815.21, -26651.44, -44013.45, -50709.67, 187500.00, -340.01, -187500.02, -187500.02, 0.00, 0.00, 0.00
30, -46784.64, -26787.31, -43967.15, -50726.72, 187500.00, -357.00, -187500.02, -187500.02, 0.00, 0.00, 0.00
31, -46760.61, -26854.93, -43940.67, -50736.91, 187500.00, -382.91, -187500.02, -187500.02, 0.00, 0.00, 0.00
32, -46764.63, -26755.57, -43961.50, -50720.71, 187500.00, -384.27, -187500.02, -187500.02, 0.00, 0.00, 0.00
33, -46747.18, -26587.53, -43957.21, -50665.28, 187500.00, -345.80, -187500.02, -187500.02, 0.00, 0.00, 0.00
34, -46757.75, -26586.91, -43959.62, -50644.49, 187500.00, -310.58, -187500.02, -187500.02, 0.00, 0.00, 0.00
35, -46758.17, -26749.81, -43936.29, -50679.14, 187500.00, -324.23, -187500.02, -187500.02, 0.00, 0.00, 0.00
36, -46720.26, -26822.47, -43892.25, -50697.09, 187500.00, -353.67, -187500.02, -187500.02, 0.00, 0.00, 0.00
37, -46705.55, -26707.61, -43904.97, -50674.58, 187500.00, -348.53, -187500.02, -187500.02, 0.00, 0.00, 0.00
38, -46735.86, -26560.06, -43960.00, -50644.27, 187500.00, -317.98, -187500.02, -187500.02, 0.00, 0.00, 0.00
39, -46769.19, -26578.88, -43978.98, -50645.34, 187500.00, -301.06, -187500.02, -187500.02, 0.00, 0.00, 0.00
40, -46758.30, -26736.06, -43938.77, -50671.09, 187500.00, -319.94, -187500.02, -187500.02, 0.00, 0.00, 0.00
41, -46713.38, -26812.55, -43890.42, -50683.59, 187500.00, -357.18, -187500.02, -187500.02, 0.00, 0.00, 0.00
42, -46702.05, -26700.88, -43898.13, -50651.58, 187500.00, -354.19, -187500.02, -187500.02, 0.00, 0.00, 0.00
43, -46724.31, -26549.49, -43937.25, -50608.95, 187500.00, -313.71, -187500.02, -187500.02, 0.00, 0.00, 0.00
44, -46726.45, -26547.21, -43926.81, -50596.21, 187500.00, -287.20, -187500.02, -187500.02, 0.00, 0.00, 0.00
45, -46696.30, -26682.53, -43878.84, -50612.89, 187500.00, -296.63, -187500.02, -187500.02, 0.00, 0.00, 0.00
46, -46678.84, -26770.19, -43857.68, -50635.35, 187500.00, -327.94, -187500.02, -187500.02, 0.00, 0.00, 0.00
47, -46664.88, -26669.52, -43858.84, -50613.13, 187500.00, -330.29, -187500.02, -187500.02, 0.00, 0.00, 0.00
48, -46701.71, -26525.69, -43913.60, -50580.77, 187500.00, -299.22, -187500.02, -187500.02, 0.00, 0.00, 0.00
49, -46736.13, -26547.48, -43941.56, -50588.21, 187500.00, -287.71, -187500.02, -187500.02, 0.00, 0.00, 0.00
50, -46741.39, -26709.57, -43927.73, -50633.32, 187500.00, -314.65, -187500.02, -187500.02, 0.00, 0.00, 0.00
51, -46702.76, -26797.53, -43882.57, -50660.18, 187500.00, -360.58, -187500.02, -187500.02, 0.00, 0.00, 0.00
52, -46726.45, -26703.76, -43927.14, -50641.83, 187500.00, -354.52, -187500.02, -187500.02, 0.00, 0.00, 0.00
53, -46765.61, -26580.27, -43982.58, -50632.67, 187500.00, -330.40, -187500.02, -187500.02, 0.00, 0.00, 0.00
54, -46788.28, -26590.84, -44003.59, -50637.54, 187500.00, -306.64, -187500.02, -187500.02, 0.00, 0.00, 0.00
55, -46756.79, -26744.64, -43954.04, -50673.77, 187500.00, -333.71, -187500.02, -187500.02, 0.00, 0.00, 0.00
56, -46739.04, -26824.24, -43927.93, -50694.40, 187500.00, -365.90, -187500.02, -187500.02, 0.00, 0.00, 0.00
57, -46733.38, -26713.04, -43938.92, -50671.18, 187500.00, -368.56, -187500.02, -187500.02, 0.00, 0.00, 0.00
58, -46786.00, -26579.04, -44012.75, -50649.92, 187500.00, -349.29, -187500.02, -187500.02, 0.00, 0.00, 0.00
59, -46791.70, -26583.85, -44017.49, -50651.93, 187500.00, -343.32, -187500.02, -187500.02, 0.00, 0.00, 0.00
60, -46788.41, -26739.95, -44000.68, -50692.50, 187500.00, -372.76, -187500.02, -187500.02, 0.00, 0.00, 0.00
61, -46764.65, -26839.01, -43978.00, -50720.67, 187500.00, -422.54, -187500.02, -187500.02, 0.00, 0.00, 0.00
62, -46769.46, -26750.37, -44002.13, -50707.86, 187500.00, -448.73, -187500.02, -187500.02, 0.00, 0.00, 0.00
63, -46818.59, -26616.19, -44068.74, -50687.14, 187500.00, -441.25, -187500.02, -187500.02, 0.00, 0.00, 0.00
64, -46836.83, -26626.20, -44086.33, -50698.74, 187500.00, -451.48, -187500.02, -187500.02, 0.00, 0.00, 0.00
65, -46861.68, -26795.56, -44099.36, -50747.76, 187500.00, -481.41, -187500.02, -187500.02, 0.00, 0.00, 0.00
66, -46862.73, -26918.21, -44094.58, -50801.58, 187500.00, -543.97, -187500.02, -187500.02, 0.00, 0.00, 0.00
67, -46832.20, -26811.14, -44080.43, -50774.09, 187500.00, -561.16, -187500.02, -187500.02, 0.00, 0.00, 0.00
68, -46866.60, -26653.56, -44136.07, -50734.64, 187500.00, -527.43, -187500.02, -187500.02, 0.00, 0.00, 0.00
69, -46896.57, -26658.63, -44161.32, -50733.86, 187500.00, -512.03, -187500.02, -187500.02, 0.00, 0.00, 0.00
70, -46887.39, -26811.39, -44129.81, -50766.78, 187500.00, -533.71, -187500.02, -187500.02, 0.00, 0.00, 0.00
71, -46865.95, -26903.38, -44100.79, -50789.13, 187500.00, -572.72, -187500.02, -187500.02, 0.00, 0.00, 0.00
72, -46862.64, -26801.44, -44115.17, -50765.21, 187500.00, -571.22, -187500.02, -187500.02, 0.00, 0.00, 0.00
73, -46885.26, -26655.13, -44156.47, -50730.23, 187500.00, -541.40, -187500.02, -187500.02, 0.00, 0.00, 0.00
74, -46886.27, -26645.02, -44161.50, -50721.43, 187500.00, -532.11, -187500.02, -187500.02, 0.00, 0.00, 0.00
75, -46866.76, -26789.41, -44131.44, -50747.71, 187500.00, -558.44, -187500.02, -187500.02, 0.00, 0.00, 0.00
76, -46829.56, -26876.34, -44094.56, -50764.14, 187500.00, -597.48, -187500.02, -187500.02, 0.00, 0.00, 0.00
77, -46817.45, -26773.97, -44103.66, -50734.57, 187500.00, -602.18, -187500.02, -187500.02, 0.00, 0.00, 0.00
78, -46820.71, -26610.98, -44126.37, -50685.42, 187500.00, -570.44, -187500.02, -187500.02, 0.00, 0.00, 0.00
79, -46834.61, -26598.93, -44138.01, -50667.65, 187500.00, -548.60, -187500.02, -187500.02, 0.00, 0.00, 0.00
80, -46826.84, -26752.29, -44115.59, -50704.64, 187500.00, -587.92, -187500.02, -187500.02, 0.00, 0.00, 0.00
81, -46779.36, -26832.96, -44071.36, -50722.23, 187500.00, -637.90, -187500.02, -187500.02, 0.00, 0.00, 0.00
82, -46758.39, -26714.09, -44071.25, -50681.62, 187500.00, -626.68, -187500.02, -187500.02, 0.00, 0.00, 0.00
83, -46787.30, -26562.23, -44123.77, -50638.84, 187500.00, -585.77, -187500.02, -187500.02, 0.00, 0.00, 0.00
84, -46805.78, -26555.73, -44148.70, -50631.55, 187500.00, -564.02, -187500.02, -187500.02, 0.00, 0.00, 0.00
85, -46801.09, -26715.68, -44134.50, -50667.22, 187500.00, -584.01, -187500.02, -187500.02, 0.00, 0.00, 0.00
86, -46763.36, -26807.29, -44098.70, -50688.52, 187500.00, -619.95, -187500.02, -187500.02, 0.00, 0.00, 0.00
87, -46736.11, -26704.59, -44089.71, -50657.30, 187500.00, -617.80, -187500.02, -187500.02, 0.00, 0.00, 0.00
88, -46789.87, -26552.71, -44168.86, -50622.32, 187500.00, -575.98, -187500.02, -187500.02, 0.00, 0.00, 0.00
89, -46811.41, -26557.47, -44193.00, -50630.14, 187500.00, -563.35, -187500.02, -187500.02, 0.00, 0.00, 0.00
90, -46782.87, -26698.11, -44153.03, -50653.81, 187500.00, -575.09, -187500.02, -187500.02, 0.00, 0.00, 0.00
91, -46772.21, -26806.56, -44142.21, -50683.11, 187500.00, -603.92, -187500.02, -187500.02, 0.00, 0.00, 0.00
92, -46761.39, -26716.03, -44147.22, -50659.71, 187500.00, -604.73, -187500.02, -187500.02, 0.00, 0.00, 0.00
93, -46785.11, -26563.30, -44191.23, -50619.14, 187500.00, -567.71, -187500.02, -187500.02, 0.00, 0.00, 0.00
94, -46783.36, -26544.46, -44189.31, -50597.69, 187500.00, -540.33, -187500.02, -187500.02, 0.00, 0.00, 0.00
95, -46777.42, -26691.27, -44166.89, -50625.22, 187500.00, -556.71, -187500.02, -187500.02, 0.00, 0.00, 0.00
96, -46748.94, -26787.65, -44132.04, -50653.12, 187500.00, -604.70, -187500.02, -187500.02, 0.00, 0.00, 0.00
97, -46753.01, -26701.01, -44150.44, -50642.70, 187500.00, -625.09, -187500.02, -187500.02, 0.00, 0.00, 0.00
98, -46799.43, -26566.66, -44212.22, -50619.05, 187500.00, -616.15, -187500.02, -187500.02, 0.00, 0.00, 0.00
99, -46823.66, -26567.89, -44237.50, -50624.00, 187500.00, -610.45, -187500.02, -187500.02, 0.00, 0.00, 0.00
100, -46819.66, -26710.94, -44219.77, -50659.49, 187500.00, -642.93, -187500.02, -187500.02, 0.00, 0.00, 0.00
101, -46801.45, -26816.68, -44191.27, -50690.49, 187500.00, -697.37, -187500.02, -187500.02, 0.00, 0.00, 0.00
102, -46785.35, -26724.01, -44186.98, -50666.42, 187500.00, -703.34, -187500.02, -187500.02, 0.00, 0.00, 0.00
103, -46814.81, -26574.97, -44235.71, -50629.05, 187500.00, -667.62, -187500.02, -187500.02, 0.00, 0.00, 0.00
104, -46837.88, -26575.71, -44255.80, -50620.31, 187500.00, -641.81, -187500.02, -187500.02, 0.00, 0.00, 0.00
105, -46820.80, -26722.18, -44221.94, -50650.06, 187500.00, -661.43, -187500.02, -187500.02, 0.00, 0.00, 0.00
106, -46804.71, -26827.59, -44198.85, -50683.79, 187500.00, -705.69, -187500.02, -187500.02, 0.00, 0.00, 0.00
107, -46800.59, -26742.10, -44206.41, -50664.00, 187500.00, -712.95, -187500.02, -187500.02, 0.00, 0.00, 0.00
108, -46829.43, -26592.41, -44252.34, -50628.44, 187500.00, -681.10, -187500.02, -187500.02, 0.00, 0.00, 0.00
109, -46814.21, -26561.45, -44235.40, -50605.58, 187500.00, -656.43, -187500.02, -187500.02, 0.00, 0.00, 0.00
110, -46793.91, -26692.74, -44196.19, -50622.25, 187500.00, -663.49, -187500.02, -187500.02, 0.00, 0.00, 0.00
111, -46786.16, -26800.32, -44180.50, -50645.83, 187500.00, -689.06, -187500.02, -187500.02, 0.00, 0.00, 0.00
112, -46784.30, -26723.50, -44195.84, -50634.54, 187500.00, -691.41, -187500.02, -187500.02, 0.00, 0.00, 0.00
113, -46796.08, -26571.89, -44222.72, -50599.07, 187500.00, -663.22, -187500.02, -187500.02, 0.00, 0.00, 0.00
114, -46811.61, -26553.51, -44231.75, -50582.84, 187500.00, -619.01, -187500.02, -187500.02, 0.00, 0.00, 0.00
115, -46787.45, -26693.28, -44192.73, -50616.51, 187500.00, -633.85, -187500.02, -187500.02, 0.00, 0.00, 0.00
116, -46751.22, -26784.59, -44153.41, -50638.01, 187500.00, -674.33, -187500.02, -187500.02, 0.00, 0.00, 0.00
117, -46739.30, -26692.45, -44147.96, -50610.41, 187500.00, -675.80, -187500.02, -187500.02, 0.00, 0.00, 0.00
118, -46755.20, -26536.53, -44182.78, -50567.96, 187500.00, -644.20, -187500.02, -187500.02, 0.00, 0.00, 0.00
119, -46758.68, -26516.25, -44188.13, -50555.38, 187500.00, -625.76, -187500.02, -187500.02, 0.00, 0.00, 0.00
120, -46748.20, -26654.37, -44162.24, -50582.51, 187500.00, -638.34, -187500.02, -187500.02, 0.00, 0.00, 0.00
121, -46745.05, -26774.82, -44145.45, -50620.53, 187500.00, -678.02, -187500.02, -187500.02, 0.00, 0.00, 0.00
122, -46737.94, -26703.45, -44141.74, -50608.93, 187500.00, -687.70, -187500.02, -187500.02, 0.00, 0.00, 0.00
123, -46761.70, -26543.34, -44182.20, -50572.18, 187500.00, -647.93, -187500.02, -187500.02, 0.00, 0.00, 0.00
124, -46805.09, -26546.29, -44230.23, -50580.72, 187500.00, -621.18, -187500.02, -187500.02, 0.00, 0.00, 0.00
125, -46814.52, -26711.36, -44226.97, -50636.69, 187500.00, -649.68, -187500.02, -187500.02, 0.00, 0.00, 0.00
126, -46774.58, -26812.23, -44182.04, -50666.48, 187500.00, -694.58, -187500.02, -187500.02, 0.00, 0.00, 0.00
127, -46766.69, -26730.92, -44186.96, -50647.46, 187500.00, -694.00, -187500.02, -187500.02, 0.00, 0.00, 0.00
128, -46783.88, -26573.03, -44223.06, -50602.94, 187500.00, -658.08, -187500.02, -187500.02, 0.00, 0.00, 0.00
129, -46797.93, -26542.94, -44234.48, -50586.89, 187500.00, -634.99, -187500.02, -187500.02, 0.00, 0.00, 0.00
130, -46795.36, -26687.91, -44214.10, -50615.59, 187500.00, -654.17, -187500.02, -187500.02, 0.00, 0.00, 0.00
131, -46772.95, -26800.23, -44183.43, -50643.29, 187500.00, -692.55, -187500.02, -187500.02, 0.00, 0.00, 0.00
132, -46786.56, -26736.33, -44213.78, -50635.77, 187500.00, -699.36, -187500.02, -187500.02, 0.00, 0.00, 0.00
133, -46777.42, -26571.44, -44222.95, -50586.49, 187500.00, -667.80, -187500.02, -187500.02, 0.00, 0.00, 0.00
134, -46811.68, -26553.45, -44256.36, -50573.10, 187500.00, -629.18, -187500.02, -187500.02, 0.00, 0.00, 0.00
135, -46817.89, -26705.73, -44243.76, -50609.54, 187500.00, -634.48, -187500.02, -187500.02, 0.00, 0.00, 0.00
136, -46788.05, -26823.79, -44204.02, -50644.07, 187500.00, -673.95, -187500.02, -187500.02, 0.00, 0.00, 0.00
137, -46774.98, -26740.44, -44201.71, -50623.61, 187500.00, -680.19, -187500.02, -187500.02, 0.00, 0.00, 0.00
138, -46788.04, -26573.12, -44227.33, -50578.55, 187500.00, -647.06, -187500.02, -187500.02, 0.00, 0.00, 0.00
139, -46806.65, -26538.45, -44246.53, -50562.86, 187500.00, -618.96, -187500.02, -187500.02, 0.00, 0.00, 0.00
140, -46783.68, -26666.61, -44206.81, -50591.32, 187500.00, -626.99, -187500.02, -187500.02, 0.00, 0.00, 0.00
141, -46743.69, -26762.44, -44160.50, -50609.36, 187500.00, -650.19, -187500.02, -187500.02, 0.00, 0.00, 0.00
142, -46739.69, -26687.78, -44171.52, -50590.45, 187500.00, -652.09, -187500.02, -187500.02, 0.00, 0.00, 0.00
143, -46773.64, -26548.17, -44225.65, -50562.26, 187500.00, -627.57, -187500.02, -187500.02, 0.00, 0.00, 0.00
144, -46780.10, -26528.41, -44231.69, -50549.00, 187500.00, -609.51, -187500.02, -187500.02, 0.00, 0.00, 0.00
145, -46775.25, -26660.36, -44212.96, -50573.05, 187500.00, -619.30, -187500.02, -187500.02, 0.00, 0.00, 0.00
146, -46764.86, -26778.10, -44193.78, -50611.70, 187500.00, -654.79, -187500.02, -187500.02, 0.00, 0.00, 0.00
147, -46768.90, -26721.78, -44208.71, -50607.05, 187500.00, -663.98, -187500.02, -187500.02, 0.00, 0.00, 0.00
148, -46805.29, -26583.22, -44267.54, -50581.88, 187500.00, -639.04, -187500.02, -187500.02, 0.00, 0.00, 0.00
149, -46825.61, -26561.45, -44292.55, -50578.20, 187500.00, -616.75, -187500.02, -187500.02, 0.00, 0.00, 0.00
150, -46818.23, -26693.82, -44266.76, -50605.78, 187500.00, -625.00, -187500.02, -187500.02, 0.00, 0.00, 0.00
151, -46810.95, -26824.39, -44247.31, -50650.37, 187500.00, -661.41, -187500.02, -187500.02, 0.00, 0.00, 0.00
152, -46801.06, -26760.54, -44247.09, -50635.66, 187500.00, -663.29, -187500.02, -187500.02, 0.00, 0.00, 0.00
153, -46815.21, -26600.79, -44278.34, -50591.59, 187500.00, -626.94, -187500.02, -187500.02, 0.00, 0.00, 0.00
154, -46828.29, -26560.62, -44286.05, -50570.24, 187500.00, -591.18, -187500.02, -187500.02, 0.00, 0.00, 0.00
155, -46838.93, -26703.43, -44274.96, -50603.54, 187500.00, -609.24, -187500.02, -187500.02, 0.00, 0.00, 0.00
156, -46792.48, -26808.41, -44215.14, -50626.05, 187500.00, -650.37, -187500.02, -187500.02, 0.00, 0.00, 0.00
157, -46808.30, -26746.14, -44242.26, -50619.57, 187500.00, -659.26, -187500.02, -187500.02, 0.00, 0.00, 0.00
158, -46834.17, -26595.76, -44281.73, -50591.23, 187500.00, -642.30, -187500.02, -187500.02, 0.00, 0.00, 0.00
159, -46839.02, -26557.94, -44286.20, -50582.91, 187500.00, -630.14, -187500.02, -187500.02, 0.00, 0.00, 0.00
160, -46822.59, -26677.68, -44254.48, -50605.29, 187500.00, -649.41, -187500.02, -187500.02, 0.00, 0.00, 0.00
161, -46819.01, -26805.96, -44235.35, -50642.28, 187500.00, -694.92, -187500.02, -187500.02, 0.00, 0.00, 0.00
162, -46807.66, -26747.42, -44235.02, -50637.96, 187500.00, -717.76, -187500.02, -187500.02, 0.00, 0.00, 0.00
163, -46838.70, -26594.53, -44285.33, -50604.23, 187500.00, -695.45, -187500.02, -187500.02, 0.00, 0.00, 0.00
164, -46864.59, -26569.79, -44307.06, -50597.60, 187500.00, -675.49, -187500.02, -187500.02, 0.00, 0.00, 0.00
165, -46858.57, -26708.81, -44281.91, -50628.09, 187500.00, -689.82, -187500.02, -187500.02, 0.00, 0.00, 0.00
166, -46822.95, -26820.73, -44237.99, -50654.39, 187500.00, -718.97, -187500.02, -187500.02, 0.00, 0.00, 0.00
167, -46818.50, -26748.58, -44245.52, -50636.24, 187500.00, -707.84, -187500.02, -187500.02, 0.00, 0.00, 0.00
168, -46834.21, -26585.77, -44280.08, -50596.82, 187500.00, -662.53, -187500.02, -187500.02, 0.00, 0.00, 0.00
169, -46842.35, -26541.73, -44294.27, -50576.30, 187500.00, -615.84, -187500.02, -187500.02, 0.00, 0.00, 0.00
170, -46845.95, -26681.37, -44282.36, -50603.01, 187500.00, -610.34, -187500.02, -187500.02, 0.00, 0.00, 0.00
171, -46823.57, -26804.17, -44247.45, -50634.54, 187500.00, -639.26, -187500.02, -187500.02, 0.00, 0.00, 0.00
172, -46779.90, -26722.76, -44211.10, -50603.03, 187500.00, -629.63, -187500.02, -187500.02, 0.00, 0.00, 0.00
173, -46765.61, -26529.93, -44211.50, -50531.50, 187500.00, -567.15, -187500.02, -187500.02, 0.00, 0.00, 0.00
174, -46783.14, -26482.70, -44228.76, -50504.79, 187500.00, -507.99, -187500.02, -187500.02, 0.00, 0.00, 0.00
175, -46782.02, -26621.13, -44212.53, -50531.73, 187500.00, -512.21, -187500.02, -187500.02, 0.00, 0.00, 0.00
176, -46756.70, -26747.06, -44178.71, -50569.43, 187500.00, -567.67, -187500.02, -187500.02, 0.00, 0.00, 0.00
177, -46741.83, -26671.82, -44169.41, -50547.33, 187500.00, -582.29, -187500.02, -187500.02, 0.00, 0.00, 0.00
178, -46730.54, -26495.53, -44171.47, -50494.22, 187500.00, -559.37, -187500.02, -187500.02, 0.00, 0.00, 0.00
179, -46736.25, -26446.40, -44172.14, -50466.93, 187500.00, -535.23, -187500.02, -187500.02, 0.00, 0.00, 0.00
180, -46714.70, -26567.93, -44127.73, -50480.23, 187500.00, -549.99, -187500.02, -187500.02, 0.00, 0.00, 0.00
181, -46687.70, -26662.26, -44088.57, -50495.76, 187500.00, -585.21, -187500.02, -187500.02, 0.00, 0.00, 0.00
182, -46695.77, -26604.88, -44101.20, -50482.73, 187500.00, -592.70, -187500.02, -187500.02, 0.00, 0.00, 0.00
183, -46715.95, -26473.32, -44127.66, -50443.39, 187500.00, -567.62, -187500.02, -187500.02, 0.00, 0.00, 0.00
184, -46738.43, -26444.57, -44148.54, -50426.85, 187500.00, -539.26, -187500.02, -187500.02, 0.00, 0.00, 0.00
185, -46736.91, -26576.04, -44114.68, -50452.07, 187500.00, -549.43, -187500.02, -187500.02, 0.00, 0.00, 0.00
186, -46708.91, -26695.16, -44071.43, -50473.52, 187500.00, -573.28, -187500.02, -187500.02, 0.00, 0.00, 0.00
187, -46717.11, -26642.74, -44082.02, -50463.40, 187500.00, -569.28, -187500.02, -187500.02, 0.00, 0.00, 0.00
188, -46707.59, -26474.95, -44071.20, -50386.57, 187500.00, -531.01, -187500.02, -187500.02, 0.00, 0.00, 0.00
189, -46701.33, -26409.05, -44054.50, -50319.30, 187500.00, -478.57, -187500.02, -187500.02, 0.00, 0.00, 0.00
190, -46700.64, -26543.93, -44021.43, -50329.82, 187500.00, -478.35, -187500.02, -187500.02, 0.00, 0.00, 0.00
191, -46648.00, -26666.05, -43925.25, -50342.54, 187500.00, -512.48, -187500.02, -187500.02, 0.00, 0.00, 0.00
192, -46648.00, -26621.75, -43896.16, -50295.29, 187500.00, -514.63, -187500.02, -187500.02, 0.00, 0.00, 0.00
193, -46676.68, -26499.85, -43900.93, -50212.43, 187500.00, -493.71, -187500.02, -187500.02, 0.00, 0.00, 0.00
194, -46662.64, -26474.14, -43845.89, -50111.87, 187500.00, -462.50, -187500.02, -187500.02, 0.00, 0.00, 0.00
195, -46668.45, -26628.46, -43800.75, -50076.89, 187500.00, -461.70, -187500.02, -187500.02, 0.00, 0.00, 0.00
196, -46637.11, -26772.74, -43724.64, -50065.61, 187500.00, -498.80, -187500.02, -187500.02, 0.00, 0.00, 0.00
197, -46612.46, -26722.56, -43661.58, -50008.70, 187500.00, -489.97, -187500.02, -187500.02, 0.00, 0.00, 0.00
198, -46632.35, -26565.14, -43654.95, -49921.19, 187500.00, -420.55, -187500.02, -187500.02, 0.00, 0.00, 0.00
199, -46650.10, -26518.80, -43641.91, -49876.29, 187500.00, -369.79, -187500.02, -187500.02, 0.00, 0.00, 0.00
200, -46645.77, -26626.36, -43594.10, -49885.34, 187500.00, -372.85, -187500.02, -187500.02, 0.00, 0.00, 0.00
201, -46622.70, -26742.54, -43527.43, -49910.39, 187500.00, -402.96, -187500.02, -187500.02, 0.00, 0.00, 0.00
202, -46614.27, -26683.49, -43508.61, -49886.90, 187500.00, -392.12, -187500.02, -187500.02, 0.00, 0.00, 0.00
203, -46629.74, -26525.24, -43526.85, -49843.29, 187500.00, -362.19, -187500.02, -187500.02, 0.00, 0.00, 0.00
204, -46636.33, -26449.89, -43524.25, -49804.63, 187500.00, -335.54, -187500.02, -187500.02, 0.00, 0.00, 0.00
205, -46650.95, -26556.08, -43507.38, -49821.52, 187500.00, -356.04, -187500.02, -187500.02, 0.00, 0.00, 0.00
206, -46645.45, -26676.22, -43473.09, -49861.35, 187500.00, -416.57, -187500.02, -187500.02, 0.00, 0.00, 0.00
207, -46631.55, -26607.94, -43449.29, -49851.68, 187500.00, -433.94, -187500.02, -187500.02, 0.00, 0.00, 0.00
208, -46672.48, -26445.00, -43492.49, -49813.63, 187500.00, -406.82, -187500.02, -187500.02, 0.00, 0.00, 0.00
209, -46706.23, -26391.26, -43515.31, -49804.96, 187500.00, -392.65, -187500.02, -187500.02, 0.00, 0.00, 0.00
210, -46702.09, -26495.73, -43486.12, -49827.33, 187500.00, -414.98, -187500.02, -187500.02, 0.00, 0.00, 0.00
211, -46695.00, -26609.62, -43463.61, -49863.41, 187500.00, -464.04, -187500.02, -187500.02, 0.00, 0.00, 0.00
212, -46725.25, -26571.06, -43502.15, -49871.23, 187500.00, -488.10, -187500.02, -187500.02, 0.00, 0.00, 0.00
213, -46742.05, -26416.56, -43533.30, -49831.89, 187500.00, -458.41, -187500.02, -187500.02, 0.00, 0.00, 0.00
214, -46794.14, -26385.99, -43577.34, -49823.82, 187500.00, -428.19, -187500.02, -187500.02, 0.00, 0.00, 0.00
215, -46808.35, -26521.10, -43570.86, -49866.56, 187500.00, -455.68, -187500.02, -187500.02, 0.00, 0.00, 0.00
216, -46786.04, -26638.74, -43530.65, -49912.41, 187500.00, -510.02, -187500.02, -187500.02, 0.00, 0.00, 0.00
217, -46800.68, -26583.73, -43550.05, -49910.26, 187500.00, -524.86, -187500.02, -187500.02, 0.00, 0.00, 0.00
218, -46851.60, -26453.54, -43610.69, -49895.66, 187500.00, -521.31, -187500.02, -187500.02, 0.00, 0.00, 0.00
219, -46873.66, -26412.63, -43621.68, -49886.43, 187500.00, -521.04, -187500.02, -187500.02, 0.00, 0.00, 0.00
220, -46883.59, -26533.87, -43616.10, -49924.21, 187500.00, -559.22, -187500.02, -187500.02, 0.00, 0.00, 0.00
221, -46876.34, -26664.98, -43603.80, -49968.53, 187500.00, -616.71, -187500.02, -187500.02, 0.00, 0.00, 0.00
222, -46875.12, -26624.39, -43616.59, -49974.61, 187500.00, -650.26, -187500.02, -187500.02, 0.00, 0.00, 0.00
223, -46880.88, -26457.07, -43641.04, -49932.16, 187500.00, -636.64, -187500.02, -187500.02, 0.00, 0.00, 0.00
224, -46912.04, -26403.29, -43674.59, -49913.79, 187500.00, -611.10, -187500.02, -187500.02, 0.00, 0.00, 0.00
225, -46917.18, -26521.39, -43660.18, -49941.48, 187500.00, -617.82, -187500.02, -187500.02, 0.00, 0.00, 0.00
226, -46906.16, -26652.38, -43637.46, -49982.19, 187500.00, -657.92, -187500.02, -187500.02, 0.00, 0.00, 0.00
227, -46884.75, -26604.07, -43628.68, -49979.04, 187500.00, -675.67, -187500.02, -187500.02, 0.00, 0.00, 0.00
228, -46880.03, -26428.88, -43650.39, -49926.51, 187500.00, -634.70, -187500.02, -187500.02, 0.00, 0.00, 0.00
229, -46899.14, -26368.06, -43681.45, -49900.80, 187500.00, -589.91, -187500.02, -187500.02, 0.00, 0.00, 0.00
230, -46901.02, -26493.43, -43671.66, -49925.28, 187500.00, -589.88, -187500.02, -187500.02, 0.00, 0.00, 0.00
231, -46851.98, -26604.83, -43604.99, -49946.67, 187500.00, -618.90, -187500.02, -187500.02, 0.00, 0.00, 0.00
232, -46844.92, -26541.67, -43606.93, -49923.71, 187500.00, -611.72, -187500.02, -187500.02, 0.00, 0.00, 0.00
233, -46870.64, -26387.82, -43659.71, -49887.21, 187500.00, -582.15, -187500.02, -187500.02, 0.00, 0.00, 0.00
234, -46881.75, -26330.55, -43679.42, -49861.84, 187500.00, -552.40, -187500.02, -187500.02, 0.00, 0.00, 0.00
235, -46891.54, -26451.05, -43676.98, -49882.59, 187500.00, -559.58, -187500.02, -187500.02, 0.00, 0.00, 0.00
236, -46870.58, -26580.16, -43644.17, -49917.01, 187500.00, -598.56, -187500.02, -187500.02, 0.00, 0.00, 0.00
237, -46866.09, -26540.15, -43652.93, -49912.61, 187500.00, -614.38, -187500.02, -187500.02, 0.00, 0.00, 0.00
238, -46857.70, -26378.70, -43664.55, -49868.28, 187500.00, -596.50, -187500.02, -187500.02, 0.00, 0.00, 0.00
239, -46885.78, -26318.53, -43696.52, -49846.60, 187500.00, -563.58, -187500.02, -187500.02, 0.00, 0.00, 0.00
240, -46887.52, -26441.38, -43682.50, -49877.18, 187500.00, -585.03, -187500.02, -187500.02, 0.00, 0.00, 0.00
241, -46845.61, -26562.23, -43637.38, -49912.65, 187500.00, -634.39, -187500.02, -187500.02, 0.00, 0.00, 0.00
242, -46825.38, -26502.96, -43633.55, -49900.36, 187500.00, -646.03, -187500.02, -187500.02, 0.00, 0.00, 0.00
243, -46840.85, -26343.47, -43671.93, -49859.23, 187500.00, -621.78, -187500.02, -187500.02, 0.00, 0.00, 0.00
244, -46852.09, -26284.44, -43686.24, -49833.35, 187500.00, -592.03, -187500.02, -187500.02, 0.00, 0.00, 0.00
245, -46856.50, -26395.89, -43680.47, -49853.35, 187500.00, -587.63, -187500.02, -187500.02, 0.00, 0.00, 0.00
246, -46823.57, -26530.58, -43641.91, -49892.04, 187500.00, -618.20, -187500.02, -187500.02, 0.00, 0.00, 0.00
247, -46777.21, -26468.00, -43597.46, -49864.32, 187500.00, -609.93, -187500.02, -187500.02, 0.00, 0.00, 0.00
248, -46788.86, -26300.43, -43625.38, -49802.28, 187500.00, -549.07, -187500.02, -187500.02, 0.00, 0.00, 0.00
249, -46791.25, -26228.07, -43640.82, -49762.49, 187500.00, -480.94, -187500.02, -187500.02, 0.00, 0.00, 0.00
250, -46781.15, -26322.64, -43617.91, -49766.85, 187500.00, -450.59, -187500.02, -187500.02, 0.00, 0.00, 0.00
251, -46735.53, -26434.60, -43551.72, -49780.51, 187500.00, -463.62, -187500.02, -187500.02, 0.00, 0.00, 0.00
252, -46675.00, -26354.81, -43494.70, -49733.97, 187500.00, -442.99, -187500.02, -187500.02, 0.00, 0.00, 0.00
253, -46654.17, -26155.12, -43486.75, -49648.77, 187500.00, -375.20, -187500.02, -187500.02, 0.00, 0.00, 0.00
254, -46642.03, -26057.10, -43464.66, -49591.72, 187500.00, -319.61, -187500.02, -187500.02, 0.00, 0.00, 0.00
255, -46587.56, -26123.29, -43379.21, -49570.00, 187500.00, -309.91, -187500.02, -187500.02, 0.00, 0.00, 0.00
0, -46522.38, -26209.07, -43286.41, -49557.88, 187500.00, -325.91, -187500.02, -187500.02, 0.00, 0.00, 0.00
1, -46491.20, -26135.89, -43246.42, -49512.33, 187500.00, -318.38, -187500.02, -187500.02, 0.00, 0.00, 0.00
2, -46460.58, -25918.50, -43214.13, -49439.75, 187500.00, -286.26, -187500.02, -187500.02, 0.00, 0.00, 0.00
3, -46455.64, -25801.02, -43196.04, -49387.05, 187500.00, -248.04, -187500.02, -187500.02, 0.00, 0.00, 0.00
4, -46430.36, -25876.41, -43139.22, -49385.75, 187500.00, -254.39, -187500.02, -187500.02, 0.00, 0.00, 0.00
5, -46375.31, -25966.60, -43051.27, -49389.73, 187500.00, -280.58, -187500.02, -187500.02, 0.00, 0.00, 0.00
6, -46341.85, -25888.33, -43019.93, -49359.87, 187500.00, -276.22, -187500.02, -187500.02, 0.00, 0.00, 0.00
7, -46329.71, -25701.40, -43030.57, -49307.30, 187500.00, -237.22, -187500.02, -187500.02, 0.00, 0.00, 0.00
8, -46335.19, -25619.35, -43042.48, -49274.00, 187500.00, -193.95, -187500.02, -187500.02, 0.00, 0.00, 0.00
9, -46323.65, -25717.16, -43024.31, -49290.18, 187500.00, -196.52, -187500.02, -187500.02, 0.00, 0.00, 0.00
10, -46291.13, -25839.38, -42987.61, -49319.95, 187500.00, -239.41, -187500.02, -187500.02, 0.00, 0.00, 0.00
11, -46274.52, -25808.87, -42992.95, -49315.30, 187500.00, -268.18, -187500.02, -187500.02, 0.00, 0.00, 0.00
12, -46294.84, -25661.95, -43055.47, -49283.45, 187500.00, -259.35, -187500.02, -187500.02, 0.00, 0.00, 0.00
13, -46332.46, -25618.27, -43112.45, -49277.46, 187500.00, -238.87, -187500.02, -187500.02, 0.00, 0.00, 0.00
14, -46352.66, -25753.14, -43133.64, -49318.16, 187500.00, -251.79, -187500.02, -187500.02, 0.00, 0.00, 0.00
15, -46322.38, -25901.11, -43109.38, -49365.70, 187500.00, -289.95, -187500.02, -187500.02, 0.00, 0.00, 0.00
16, -46286.82, -25866.82, -43100.42, -49354.93, 187500.00, -283.13, -187500.02, -187500.02, 0.00, 0.00, 0.00
17, -46311.05, -25721.07, -43162.58, -49322.48, 187500.00, -234.96, -187500.02, -187500.02, 0.00, 0.00, 0.00
18, -46370.97, -25687.63, -43248.52, -49325.02, 187500.00, -188.25, -187500.02, -187500.02, 0.00, 0.00, 0.00
19, -46362.84, -25809.27, -43236.03, -49354.24, 187500.00, -170.95, -187500.02, -187500.02, 0.00, 0.00, 0.00
20, -46344.57, -25958.31, -43214.57, -49388.70, 187500.00, -172.51, -187500.02, -187500.02, 0.00, 0.00, 0.00
21, -46309.17, -25918.88, -43197.72, -49368.12, 187500.00, -144.35, -187500.02, -187500.02, 0.00, 0.00, 0.00
22, -46327.81, -25769.04, -43246.85, -49330.10, 187500.00, -97.50, -187500.02, -187500.02, 0.00, 0.00, 0.00
23, -46349.76, -25699.99, -43281.71, -49298.60, 187500.00, -62.18, -187500.02, -187500.02, 0.00, 0.00, 0.00
24, -46360.13, -25811.23, -43283.53, -49312.75, 187500.00, -78.16, -187500.02, -187500.02, 0.00, 0.00, 0.00
25, -46326.83, -25943.11, -43241.57, -49322.86, 187500.00, -122.40, -187500.02, -187500.02, 0.00, 0.00, 0.00
26, -46293.81, -25898.09, -43216.67, -49276.70, 187500.00, -135.27, -187500.02, -187500.02, 0.00, 0.00, 0.00
27, -46312.05, -25729.54, -43260.21, -49210.27, 187500.00, -111.31, -187500.02, -187500.02, 0.00, 0.00, 0.00
28, -46335.07, -25662.08, -43293.67, -49183.43, 187500.00, -86.14, -187500.02, -187500.02, 0.00, 0.00, 0.00
29, -46292.74, -25745.86, -43242.27, -49182.38, 187500.00, -85.63, -187500.02, -187500.02, 0.00, 0.00, 0.00
30, -46257.29, -25865.57, -43196.55, -49198.22, 187500.00, -108.67, -187500.02, -187500.02, 0.00, 0.00, 0.00
31, -46242.50, -25828.71, -43192.38, -49184.23, 187500.00, -108.72, -187500.02, -187500.02, 0.00, 0.00, 0.00
32, -46210.82, -25649.65, -43181.54, -49130.00, 187500.00, -74.34, -187500.02, -187500.02, 0.00, 0.00, 0.00
33, -46219.88, -25552.83, -43194.99, -49080.00, 187500.00, -12.65, -187500.02, -187500.02, 0.00, 0.00, 0.00
34, -46211.98, -25652.54, -43170.02, -49072.83, 187500.00, 8.36, -187500.02, -187500.02, 0.00, 0.00, 0.00
35, -46153.76, -25779.58, -43101.56, -49079.33, 187500.00, -11.76, -187500.02, -187500.02, 0.00, 0.00, 0.00
36, -46118.33, -25726.79, -43079.39, -49038.18, 187500.00, -1.36, -187500.02, -187500.02, 0.00, 0.00, 0.00
37, -46116.72, -25545.43, -43096.66, -48975.46, 187500.00, 30.15, -187500.02, -187500.02, 0.00, 0.00, 0.00
38, -46101.32, -25438.65, -43086.63, -48918.85, 187500.00, 77.85, -187500.02, -187500.02, 0.00, 0.00, 0.00
39, -46094.97, -25522.92, -43065.15, -48913.35, 187500.00, 93.52, -187500.02, -187500.02, 0.00, 0.00, 0.00
40, -46057.02, -25652.00, -43011.26, -48941.09, 187500.00, 54.72, -187500.02, -187500.02, 0.00, 0.00, 0.00
41, -46029.15, -25620.28, -42988.86, -48921.29, 187500.00, 39.05, -187500.02, -187500.02, 0.00, 0.00, 0.00
42, -46034.96, -25455.57, -43010.79, -48860.15, 187500.00, 60.93, -187500.02, -187500.02, 0.00, 0.00, 0.00
43, -46040.01, -25370.44, -43017.25, -48817.19, 187500.00, 85.16, -187500.02, -187500.02, 0.00, 0.00, 0.00
44, -46024.86, -25461.25, -42988.53, -48812.14, 187500.00, 93.30, -187500.02, -187500.02, 0.00, 0.00, 0.00
45, -46021.37, -25620.48, -42969.46, -48846.74, 187500.00, 62.99, -187500.02, -187500.02, 0.00, 0.00, 0.00
46, -45977.69, -25592.37, -42930.19, -48832.17, 187500.00, 50.83, -187500.02, -187500.02, 0.00, 0.00, 0.00
47, -45993.94, -25420.84, -42963.16, -48774.23, 187500.00, 93.34, -187500.02, -187500.02, 0.00, 0.00, 0.00
48, -46041.57, -25353.72, -43009.25, -48760.51, 187500.00, 130.87, -187500.02, -187500.02, 0.00, 0.00, 0.00
49, -46059.57, -25470.75, -43004.84, -48795.67, 187500.00, 128.21, -187500.02, -187500.02, 0.00, 0.00, 0.00
50, -46056.10, -25641.96, -42983.18, -48854.59, 187500.00, 69.40, -187500.02, -187500.02, 0.00, 0.00, 0.00
51, -46041.78, -25632.40, -42969.84, -48863.23, 187500.00, 36.01, -187500.02, -187500.02, 0.00, 0.00, 0.00
52, -46079.89, -25486.06, -43023.38, -48831.70, 187500.00, 57.20, -187500.02, -187500.02, 0.00, 0.00, 0.00
53, -46137.96, -25444.93, -43080.41, -48837.89, 187500.00, 59.41, -187500.02, -187500.02, 0.00, 0.00, 0.00
54, -46147.97, -25560.72, -43071.56, -48872.89, 187500.00, 21.03, -187500.02, -187500.02, 0.00, 0.00, 0.00
55, -46161.80, -25730.48, -43063.70, -48934.92, 187500.00, -55.63, -187500.02, -187500.02, 0.00, 0.00, 0.00
56, -46176.76, -25739.46, -43080.91, -48957.72, 187500.00, -109.70, -187500.02, -187500.02, 0.00, 0.00, 0.00
57, -46213.46, -25609.22, -43134.80, -48942.59, 187500.00, -129.24, -187500.02, -187500.02, 0.00, 0.00, 0.00
58, -46237.29, -25538.50, -43164.19, -48933.02, 187500.00, -135.03, -187500.02, -187500.02, 0.00, 0.00, 0.00
59, -46254.27, -25645.23, -43166.96, -48957.05, 187500.00, -155.08, -187500.02, -187500.02, 0.00, 0.00, 0.00
60, -46259.71, -25815.01, -43156.61, -49015.70, 187500.00, -211.69, -187500.02, -187500.02, 0.00, 0.00, 0.00
61, -46262.63, -25811.46, -43170.70, -49033.94, 187500.00, -241.53, -187500.02, -187500.02, 0.00, 0.00, 0.00
62, -46297.30, -25679.61, -43232.05, -49019.18, 187500.00, -233.37, -187500.02, -187500.02, 0.00, 0.00, 0.00
63, -46390.42, -25649.90, -43333.93, -49039.93, 187500.00, -225.53, -187500.02, -187500.02, 0.00, 0.00, 0.00
64, -46413.48, -25787.16, -43342.11, -49093.37, 187500.00, -256.89, -187500.02, -187500.02, 0.00, 0.00, 0.00
65, -46432.08, -25973.69, -43340.16, -49163.46, 187500.00, -313.68, -187500.02, -187500.02, 0.00, 0.00, 0.00
66, -46438.32, -25990.52, -43355.27, -49192.52, 187500.00, -358.83, -187500.02, -187500.02, 0.00, 0.00, 0.00
67, -46468.96, -25862.46, -43413.32, -49174.33, 187500.00, -364.58, -187500.02, -187500.02, 0.00, 0.00, 0.00
68, -46550.99, -25824.11, -43506.82, -49186.60, 187500.00, -374.06, -187500.02, -187500.02, 0.00, 0.00, 0.00
69, -46555.55, -25945.59, -43499.82, -49231.35, 187500.00, -421.49, -187500.02, -187500.02, 0.00, 0.00, 0.00
70, -46574.64, -26123.98, -43508.38, -49296.84, 187500.00, -487.60, -187500.02, -187500.02, 0.00, 0.00, 0.00
71, -46560.22, -26130.80, -43507.67, -49322.23, 187500.00, -538.30, -187500.02, -187500.02, 0.00, 0.00, 0.00
72, -46599.50, -26000.13, -43567.53, -49306.65, 187500.00, -542.75, -187500.02, -187500.02, 0.00, 0.00, 0.00
73, -46671.69, -25972.50, -43644.98, -49324.26, 187500.00, -544.20, -187500.02, -187500.02, 0.00, 0.00, 0.00
74, -46702.45, -26102.81, -43663.21, -49378.78, 187500.00, -577.05, -187500.02, -187500.02, 0.00, 0.00, 0.00
75, -46699.21, -26269.91, -43643.43, -49443.55, 187500.00, -637.61, -187500.02, -187500.02, 0.00, 0.00, 0.00
76, -46698.56, -26266.74, -43646.65, -49461.05, 187500.00, -667.87, -187500.02, -187500.02, 0.00, 0.00, 0.00
77, -46737.99, -26130.62, -43704.63, -49442.73, 187500.00, -659.44, -187500.02, -187500.02, 0.00, 0.00, 0.00
78, -46764.00, -26057.89, -43738.99, -49431.53, 187500.00, -644.11, -187500.02, -187500.02, 0.00, 0.00, 0.00
79, -46782.00, -26163.52, -43747.14, -49461.41, 187500.00, -653.25, -187500.02, -187500.02, 0.00, 0.00, 0.00
80, -46779.41, -26324.43, -43735.88, -49518.19, 187500.00, -702.43, -187500.02, -187500.02, 0.00, 0.00, 0.00
81, -46781.93, -26325.24, -43739.30, -49539.42, 187500.00, -740.27, -187500.02, -187500.02, 0.00, 0.00, 0.00
82, -46780.75, -26175.14, -43747.82, -49504.84, 187500.00, -732.13, -187500.02, -187500.02, 0.00, 0.00, 0.00
83, -46798.34, -26083.86, -43775.67, -49472.05, 187500.00, -704.15, -187500.02, -187500.02, 0.00, 0.00, 0.00
84, -46796.82, -26172.08, -43757.58, -49479.03, 187500.00, -703.28, -187500.02, -187500.02, 0.00, 0.00, 0.00
85, -46766.73, -26323.29, -43709.37, -49512.11, 187500.00, -736.53, -187500.02, -187500.02, 0.00, 0.00, 0.00
86, -46720.71, -26300.25, -43670.77, -49496.62, 187500.00, -746.37, -187500.02, -187500.02, 0.00, 0.00, 0.00
87, -46728.04, -26145.46, -43699.94, -49447.71, 187500.00, -715.03, -187500.02, -187500.02, 0.00, 0.00, 0.00
88, -46750.17, -26061.55, -43727.52, -49415.95, 187500.00, -683.36, -187500.02, -187500.02, 0.00, 0.00, 0.00
89, -46750.77, -26137.95, -43713.59, -49419.75, 187500.00, -677.73, -187500.02, -187500.02, 0.00, 0.00, 0.00
90, -46743.15, -26293.65, -43689.37, -49457.37, 187500.00, -708.01, -187500.02, -187500.02, 0.00, 0.00, 0.00
91, -46714.41, -26285.23, -43671.38, -49462.87, 187500.00, -723.30, -187500.02, -187500.02, 0.00, 0.00, 0.00
92, -46719.23, -26130.62, -43697.48, -49421.36, 187500.00, -691.65, -187500.02, -187500.02, 0.00, 0.00, 0.00
93, -46743.66, -26037.37, -43729.11, -49388.12, 187500.00, -648.74, -187500.02, -187500.02, 0.00, 0.00, 0.00
94, -46740.43, -26116.65, -43707.45, -49393.31, 187500.00, -636.76, -187500.02, -187500.02, 0.00, 0.00, 0.00
95, -46714.18, -26270.00, -43659.01, -49420.84, 187500.00, -659.96, -187500.02, -187500.02, 0.00, 0.00, 0.00
96, -46692.73, -26262.00, -43643.32, -49417.74, 187500.00, -666.15, -187500.02, -187500.02, 0.00, 0.00, 0.00
97, -46663.29, -26084.39, -43636.91, -49364.21, 187500.00, -638.23, -187500.02, -187500.02, 0.00, 0.00, 0.00
98, -46682.82, -25973.80, -43664.02, -49322.57, 187500.00, -592.81, -187500.02, -187500.02, 0.00, 0.00, 0.00
99, -46679.09, -26041.75, -43643.72, -49327.84, 187500.00, -578.37, -187500.02, -187500.02, 0.00, 0.00, 0.00
100, -46644.33, -26178.21, -43587.26, -49356.54, 187500.00, -606.87, -187500.02, -187500.02, 0.00, 0.00, 0.00
101, -46617.22, -26166.65, -43561.20, -49346.86, 187500.00, -611.14, -187500.02, -187500.02, 0.00, 0.00, 0.00
102, -46601.57, -25996.64, -43559.55, -49297.69, 187500.00, -585.55, -187500.02, -187500.02, 0.00, 0.00, 0.00
103, -46615.66, -25882.94, -43577.74, -49246.28, 187500.00, -535.59, -187500.02, -187500.02, 0.00, 0.00, 0.00
104, -46623.14, -25976.84, -43566.16, -49258.17, 187500.00, -527.14, -187500.02, -187500.02, 0.00, 0.00, 0.00
105, -46584.03, -26118.15, -43507.20, -49286.51, 187500.00, -558.93, -187500.02, -187500.02, 0.00, 0.00, 0.00
106, -46543.04, -26099.51, -43469.71, -49273.10, 187500.00, -564.92, -187500.02, -187500.02, 0.00, 0.00, 0.00
107, -46558.75, -25945.28, -43503.18, -49228.62, 187500.00, -535.15, -187500.02, -187500.02, 0.00, 0.00, 0.00
108, -46591.25, -25855.40, -43536.59, -49202.87, 187500.00, -503.23, -187500.02, -187500.02, 0.00, 0.00, 0.00
109, -46571.73, -25923.33, -43498.66, -49207.95, 187500.00, -498.13, -187500.02, -187500.02, 0.00, 0.00, 0.00
110, -46527.41, -26057.62, -43431.63, -49227.48, 187500.00, -522.65, -187500.02, -187500.02, 0.00, 0.00, 0.00
111, -46486.00, -26045.91, -43393.50, -49211.21, 187500.00, -533.56, -187500.02, -187500.02, 0.00, 0.00, 0.00
112, -46483.98, -25882.02, -43410.04, -49161.30, 187500.00, -509.62, -187500.02, -187500.02, 0.00, 0.00, 0.00
113, -46487.83, -25766.13, -43425.59, -49116.88, 187500.00, -472.72, -187500.02, -187500.02, 0.00, 0.00, 0.00
114, -46495.20, -25841.21, -43423.05, -49127.48, 187500.00, -467.60, -187500.02, -187500.02, 0.00, 0.00, 0.00
115, -46469.92, -25992.28, -43380.22, -49169.99, 187500.00, -507.52, -187500.02, -187500.02, 0.00, 0.00, 0.00
116, -46456.27, -25999.97, -43373.38, -49175.04, 187500.00, -524.48, -187500.02, -187500.02, 0.00, 0.00, 0.00
117, -46461.92, -25850.26, -43398.26, -49142.19, 187500.00, -501.39, -187500.02, -187500.02, 0.00, 0.00, 0.00
118, -46485.70, -25751.20, -43432.50, -49106.56, 187500.00, -453.79, -187500.02, -187500.02, 0.00, 0.00, 0.00
119, -46515.14, -25857.30, -43444.88, -49130.83, 187500.00, -436.24, -187500.02, -187500.02, 0.00, 0.00, 0.00
120, -46476.96, -26014.32, -43390.90, -49173.25, 187500.00, -461.16, -187500.02, -187500.02, 0.00, 0.00, 0.00
121, -46454.12, -26007.88, -43376.15, -49173.77, 187500.00, -465.34, -187500.02, -187500.02, 0.00, 0.00, 0.00
122, -46465.95, -25853.39, -43405.34, -49137.16, 187500.00, -432.64, -187500.02, -187500.02, 0.00, 0.00, 0.00
123, -46473.01, -25752.70, -43420.43, -49101.73, 187500.00, -385.19, -187500.02, -187500.02, 0.00, 0.00, 0.00
124, -46488.21, -25832.18, -43431.52, -49116.32, 187500.00, -376.38, -187500.02, -187500.02, 0.00, 0.00, 0.00
125, -46471.20, -25993.56, -43398.86, -49164.18, 187500.00, -425.29, -187500.02, -187500.02, 0.00, 0.00, 0.00
126, -46445.11, -25996.46, -43374.96, -49162.01, 187500.00, -453.43, -187500.02, -187500.02, 0.00, 0.00, 0.00
127, -46478.57, -25859.34, -43429.41, -49131.46, 187500.00, -448.51, -187500.02, -187500.02, 0.00, 0.00, 0.00
128, -46505.84, -25774.29, -43461.56, -49108.86, 187500.00, -432.04, -187500.02, -187500.02, 0.00, 0.00, 0.00
129, -46521.69, -25865.04, -43466.41, -49129.13, 187500.00, -444.33, -187500.02, -187500.02, 0.00, 0.00, 0.00
130, -46480.65, -26002.21, -43411.47, -49161.48, 187500.00, -490.75, -187500.02, -187500.02, 0.00, 0.00, 0.00
131, -46467.64, -26006.83, -43405.61, -49160.54, 187500.00, -504.99, -187500.02, -187500.02, 0.00, 0.00, 0.00
132, -46469.48, -25863.81, -43416.05, -49120.24, 187500.00, -482.55, -187500.02, -187500.02, 0.00, 0.00, 0.00
133, -46470.15, -25742.75, -43423.98, -49073.14, 187500.00, -436.93, -187500.02, -187500.02, 0.00, 0.00, 0.00
134, -46465.05, -25799.41, -43414.37, -49080.38, 187500.00, -416.19, -187500.02, -187500.02, 0.00, 0.00, 0.00
135, -46433.29, -25933.52, -43374.81, -49110.27, 187500.00, -429.35, -187500.02, -187500.02, 0.00, 0.00, 0.00
136, -46400.77, -25942.86, -43342.18, -49110.27, 187500.00, -445.40, -187500.02, -187500.02, 0.00, 0.00, 0.00
137, -46378.39, -25779.25, -43319.33, -49053.61, 187500.00, -422.74, -187500.02, -187500.02, 0.00, 0.00, 0.00
138, -46380.67, -25655.22, -43325.35, -48997.05, 187500.00, -372.78, -187500.02, -187500.02, 0.00, 0.00, 0.00
139, -46391.20, -25725.34, -43312.56, -48997.21, 187500.00, -359.91, -187500.02, -187500.02, 0.00, 0.00, 0.00
140, -46357.63, -25871.99, -43262.58, -49025.78, 187500.00, -396.12, -187500.02, -187500.02, 0.00, 0.00, 0.00
141, -46341.96, -25882.67, -43245.24, -49024.66, 187500.00, -411.03, -187500.02, -187500.02, 0.00, 0.00, 0.00
142, -46352.78, -25744.98, -43263.59, -48983.55, 187500.00, -388.27, -187500.02, -187500.02, 0.00, 0.00, 0.00
143, -46377.16, -25649.25, -43290.45, -48955.10, 187500.00, -359.95, -187500.02, -187500.02, 0.00, 0.00, 0.00
144, -46390.98, -25735.24, -43275.59, -48962.93, 187500.00, -351.10, -187500.02, -187500.02, 0.00, 0.00, 0.00
145, -46363.60, -25891.10, -43210.88, -48987.45, 187500.00, -366.19, -187500.02, -187500.02, 0.00, 0.00, 0.00
146, -46341.85, -25888.48, -43180.82, -48971.82, 187500.00, -355.71, -187500.02, -187500.02, 0.00, 0.00, 0.00
147, -46352.38, -25737.81, -43201.61, -48925.24, 187500.00, -315.92, -187500.02, -187500.02, 0.00, 0.00, 0.00
148, -46359.33, -25614.45, -43198.07, -48875.33, 187500.00, -266.50, -187500.02, -187500.02, 0.00, 0.00, 0.00
149, -46389.28, -25698.74, -43190.86, -48897.37, 187500.00, -267.98, -187500.02, -187500.02, 0.00, 0.00, 0.00
150, -46367.80, -25858.26, -43137.88, -48937.02, 187500.00, -309.73, -187500.02, -187500.02, 0.00, 0.00, 0.00
151, -46338.05, -25876.14, -43099.21, -48932.93, 187500.00, -331.32, -187500.02, -187500.02, 0.00, 0.00, 0.00
152, -46337.60, -25722.54, -43107.91, -48884.09, 187500.00, -317.98, -187500.02, -187500.02, 0.00, 0.00, 0.00
153, -46387.80, -25634.59, -43170.58, -48861.49, 187500.00, -305.19, -187500.02, -187500.02, 0.00, 0.00, 0.00
154, -46401.30, -25724.82, -43179.37, -48882.91, 187500.00, -325.33, -187500.02, -187500.02, 0.00, 0.00, 0.00
155, -46401.08, -25899.52, -43154.82, -48927.61, 187500.00, -381.66, -187500.02, -187500.02, 0.00, 0.00, 0.00
156, -46407.11, -25948.23, -43160.10, -48952.22, 187500.00, -430.36, -187500.02, -187500.02, 0.00, 0.00, 0.00
157, -46429.31, -25836.74, -43200.36, -48916.59, 187500.00, -440.60, -187500.02, -187500.02, 0.00, 0.00, 0.00
158, -46447.10, -25749.03, -43228.18, -48856.98, 187500.00, -423.77, -187500.02, -187500.02, 0.00, 0.00, 0.00
159, -46473.23, -25837.43, -43246.89, -48844.59, 187500.00, -412.21, -187500.02, -187500.02, 0.00, 0.00, 0.00
160, -46451.82, -26009.25, -43206.90, -48867.10, 187500.00, -450.59, -187500.02, -187500.02, 0.00, 0.00, 0.00
161, -46424.26, -26019.58, -43188.11, -48846.09, 187500.00, -463.89, -187500.02, -187500.02, 0.00, 0.00, 0.00
162, -46397.32, -25855.31, -43184.55, -48770.63, 187500.00, -428.93, -187500.02, -187500.02, 0.00, 0.00, 0.00
163, -46424.95, -25740.51, -43216.14, -48688.67, 187500.00, -359.01, -187500.02, -187500.02, 0.00, 0.00, 0.00
164, -46410.91, -25790.76, -43189.31, -48654.40, 187500.00, -326.25, -187500.02, -187500.02, 0.00, 0.00, 0.00
165, -46370.23, -25918.79, -43128.52, -48647.72, 187500.00, -331.16, -187500.02, -187500.02, 0.00, 0.00, 0.00
166, -46331.50, -25908.13, -43083.46, -48609.59, 187500.00, -322.85, -187500.02, -187500.02, 0.00, 0.00, 0.00
167, -46316.03, -25728.20, -43077.49, -48531.80, 187500.00, -282.93, -187500.02, -187500.02, 0.00, 0.00, 0.00
168, -46353.56, -25597.53, -43118.35, -48480.80, 187500.00, -240.57, -187500.02, -187500.02, 0.00, 0.00, 0.00
169, -46322.89, -25618.99, -43064.46, -48464.64, 187500.00, -219.27, -187500.02, -187500.02, 0.00, 0.00, 0.00
170, -46303.83, -25741.70, -43007.59, -48480.08, 187500.00, -236.77, -187500.02, -187500.02, 0.00, 0.00, 0.00
171, -46276.78, -25738.08, -42955.89, -48478.03, 187500.00, -261.52, -187500.02, -187500.02, 0.00, 0.00, 0.00
172, -46256.69, -25560.58, -42927.39, -48420.96, 187500.00, -247.23, -187500.02, -187500.02, 0.00, 0.00, 0.00
173, -46285.95, -25425.38, -42940.58, -48382.88, 187500.00, -224.19, -187500.02, -187500.02, 0.00, 0.00, 0.00
174, -46296.32, -25472.96, -42895.50, -48397.98, 187500.00, -228.48, -187500.02, -187500.02, 0.00, 0.00, 0.00
175, -46300.43, -25602.34, -42838.95, -48444.14, 187500.00, -262.50, -187500.02, -187500.02, 0.00, 0.00, 0.00
176, -46304.18, -25615.01, -42803.72, -48483.30, 187500.00, -313.35, -187500.02, -187500.02, 0.00, 0.00, 0.00
177, -46306.40, -25462.90, -42791.09, -48458.63, 187500.00, -321.40, -187500.02, -187500.02, 0.00, 0.00, 0.00
178, -46341.71, -25339.46, -42821.34, -48431.51, 187500.00, -309.15, -187500.02, -187500.02, 0.00, 0.00, 0.00
179, -46380.61, -25406.98, -42834.57, -48464.41, 187500.00, -337.62, -187500.02, -187500.02, 0.00, 0.00, 0.00
180, -46392.65, -25572.70, -42818.18, -48525.32, 187500.00, -403.87, -187500.02, -187500.02, 0.00, 0.00, 0.00
181, -46424.59, -25632.18, -42844.89, -48574.12, 187500.00, -464.51, -187500.02, -187500.02, 0.00, 0.00, 0.00
182, -46441.92, -25513.78, -42879.12, -48569.76, 187500.00, -493.86, -187500.02, -187500.02, 0.00, 0.00, 0.00
183, -46506.18, -25431.43, -42956.27, -48570.05, 187500.00, -492.57, -187500.02, -187500.02, 0.00, 0.00, 0.00
184, -46542.70, -25525.85, -42987.07, -48607.58, 187500.00, -504.08, -187500.02, -187500.02, 0.00, 0.00, 0.00
185, -46580.68, -25721.80, -43015.84, -48684.20, 187500.00, -553.03, -187500.02, -187500.02, 0.00, 0.00, 0.00
186, -46595.03, -25783.76, -43036.72, -48731.54, 187500.00, -596.95, -187500.02, -187500.02, 0.00, 0.00, 0.00
187, -46604.14, -25670.82, -43076.37, -48721.75, 187500.00, -591.74, -187500.02, -187500.02, 0.00, 0.00, 0.00
188, -46663.42, -25588.48, -43160.57, -48708.79, 187500.00, -553.36, -187500.02, -187500.02, 0.00, 0.00, 0.00
189, -46713.38, -25691.16, -43204.38, -48750.52, 187500.00, -560.49, -187500.02, -187500.02, 0.00, 0.00, 0.00
190, -46718.27, -25873.46, -43200.94, -48810.75, 187500.00, -618.63, -187500.02, -187500.02, 0.00, 0.00, 0.00
191, -46706.14, -25919.30, -43202.05, -48839.21, 187500.00, -667.89, -187500.02, -187500.02, 0.00, 0.00, 0.00
192, -46728.42, -25792.55, -43248.41, -48821.39, 187500.00, -665.99, -187500.02, -187500.02, 0.00, 0.00, 0.00
193, -46780.97, -25701.06, -43316.54, -48813.46, 187500.00, -652.16, -187500.02, -187500.02, 0.00, 0.00, 0.00
194, -46788.05, -25763.16, -43316.76, -48827.03, 187500.00, -657.50, -187500.02, -187500.02, 0.00, 0.00, 0.00
195, -46768.43, -25917.63, -43280.66, -48862.23, 187500.00, -699.18, -187500.02, -187500.02, 0.00, 0.00, 0.00
196, -46714.56, -25915.33, -43230.84, -48847.14, 187500.00, -717.69, -187500.02, -187500.02, 0.00, 0.00, 0.00
197, -46685.57, -25745.21, -43220.96, -48784.40, 187500.00, -691.65, -187500.02, -187500.02, 0.00, 0.00, 0.00
198, -46682.09, -25603.23, -43226.28, -48728.01, 187500.00, -653.03, -187500.02, -187500.02, 0.00, 0.00, 0.00
199, -46672.48, -25633.40, -43209.32, -48711.42, 187500.00, -638.86, -187500.02, -187500.02, 0.00, 0.00, 0.00
200, -46630.41, -25753.61, -43153.21, -48727.47, 187500.00, -663.74, -187500.02, -187500.02, 0.00, 0.00, 0.00
201, -46594.69, -25752.27, -43124.09, -48726.69, 187500.00, -684.54, -187500.02, -187500.02, 0.00, 0.00, 0.00
202, -46588.39, -25601.49, -43143.09, -48684.98, 187500.00, -669.97, -187500.02, -187500.02, 0.00, 0.00, 0.00
203, -46588.07, -25472.03, -43155.50, -48637.30, 187500.00, -630.19, -187500.02, -187500.02, 0.00, 0.00, 0.00
204, -46571.63, -25508.08, -43132.96, -48622.29, 187500.00, -598.80, -187500.02, -187500.02, 0.00, 0.00, 0.00
205, -46561.18, -25662.53, -43101.09, -48648.59, 187500.00, -607.83, -187500.02, -187500.02, 0.00, 0.00, 0.00
206, -46525.31, -25690.13, -43067.77, -48650.07, 187500.00, -612.91, -187500.02, -187500.02, 0.00, 0.00, 0.00
207, -46529.67, -25557.36, -43100.69, -48611.85, 187500.00, -576.83, -187500.02, -187500.02, 0.00, 0.00, 0.00
208, -46587.07, -25467.49, -43180.82, -48603.44, 187500.00, -543.57, -187500.02, -187500.02, 0.00, 0.00, 0.00
209, -46594.47, -25532.82, -43182.70, -48624.88, 187500.00, -542.63, -187500.02, -187500.02, 0.00, 0.00, 0.00
210, -46583.80, -25691.59, -43150.69, -48664.24, 187500.00, -565.25, -187500.02, -187500.02, 0.00, 0.00, 0.00
211, -46570.59, -25717.22, -43140.16, -48675.68, 187500.00, -590.29, -187500.02, -187500.02, 0.00, 0.00, 0.00
212, -46585.86, -25579.87, -43179.14, -48656.62, 187500.00, -593.95, -187500.02, -187500.02, 0.00, 0.00, 0.00
213, -46616.80, -25473.32, -43225.81, -48633.28, 187500.00, -579.74, -187500.02, -187500.02, 0.00, 0.00, 0.00
214, -46633.49, -25542.34, -43233.10, -48647.92, 187500.00, -593.26, -187500.02, -187500.02, 0.00, 0.00, 0.00
215, -46630.59, -25708.77, -43205.88, -48691.02, 187500.00, -634.39, -187500.02, -187500.02, 0.00, 0.00, 0.00
216, -46626.83, -25755.29, -43197.11, -48710.44, 187500.00, -669.55, -187500.02, -187500.02, 0.00, 0.00, 0.00
217, -46608.79, -25618.63, -43199.24, -48677.36, 187500.00, -669.81, -187500.02, -187500.02, 0.00, 0.00, 0.00
218, -46621.20, -25487.29, -43224.72, -48635.65, 187500.00, -633.34, -187500.02, -187500.02, 0.00, 0.00, 0.00
219, -46608.84, -25515.63, -43197.45, -48625.97, 187500.00, -607.77, -187500.02, -187500.02, 0.00, 0.00, 0.00
220, -46590.06, -25652.69, -43156.61, -48648.46, 187500.00, -614.99, -187500.02, -187500.02, 0.00, 0.00, 0.00
221, -46560.11, -25678.13, -43123.46, -48651.68, 187500.00, -626.45, -187500.02, -187500.02, 0.00, 0.00, 0.00
222, -46561.79, -25536.76, -43141.88, -48614.39, 187500.00, -601.22, -187500.02, -187500.02, 0.00, 0.00, 0.00
223, -46614.41, -25438.79, -43207.80, -48596.40, 187500.00, -565.48, -187500.02, -187500.02, 0.00, 0.00, 0.00
224, -46622.65, -25498.96, -43200.58, -48619.65, 187500.00, -574.13, -187500.02, -187500.02, 0.00, 0.00, 0.00
225, -46605.64, -25648.85, -43159.86, -48655.36, 187500.00, -611.01, -187500.02, -187500.02, 0.00, 0.00, 0.00
226, -46584.70, -25674.93, -43139.45, -48663.90, 187500.00, -650.03, -187500.02, -187500.02, 0.00, 0.00, 0.00
227, -46564.14, -25520.68, -43145.48, -48622.17, 187500.00, -654.91, -187500.02, -187500.02, 0.00, 0.00, 0.00
228, -46585.30, -25397.37, -43188.75, -48585.07, 187500.00, -633.76, -187500.02, -187500.02, 0.00, 0.00, 0.00
229, -46600.57, -25448.85, -43194.32, -48591.15, 187500.00, -634.70, -187500.02, -187500.02, 0.00, 0.00, 0.00
230, -46592.03, -25600.55, -43165.13, -48629.06, 187500.00, -672.50, -187500.02, -187500.02, 0.00, 0.00, 0.00
231, -46587.23, -25643.73, -43157.77, -48644.93, 187500.00, -704.26, -187500.02, -187500.02, 0.00, 0.00, 0.00
232, -46592.30, -25534.43, -43179.07, -48624.88, 187500.00, -713.27, -187500.02, -187500.02, 0.00, 0.00, 0.00
233, -46626.25, -25429.13, -43225.90, -48596.36, 187500.00, -687.45, -187500.02, -187500.02, 0.00, 0.00, 0.00
234, -46654.35, -25507.74, -43246.09, -48617.77, 187500.00, -689.33, -187500.02, -187500.02, 0.00, 0.00, 0.00
235, -46638.57, -25666.57, -43219.13, -48666.65, 187500.00, -724.02, -187500.02, -187500.02, 0.00, 0.00, 0.00
236, -46618.79, -25707.81, -43215.40, -48686.28, 187500.00, -748.94, -187500.02, -187500.02, 0.00, 0.00, 0.00
237, -46635.75, -25600.73, -43262.11, -48673.00, 187500.00, -743.96, -187500.02, -187500.02, 0.00, 0.00, 0.00
238, -46656.85, -25491.87, -43295.53, -48642.51, 187500.00, -709.22, -187500.02, -187500.02, 0.00, 0.00, 0.00
239, -46691.83, -25557.59, -43322.91, -48658.23, 187500.00, -691.34, -187500.02, -187500.02, 0.00, 0.00, 0.00
240, -46702.16, -25728.00, -43316.83, -48710.30, 187500.00, -716.24, -187500.02, -187500.02, 0.00, 0.00, 0.00
241, -46651.73, -25759.92, -43267.48, -48718.78, 187500.00, -738.41, -187500.02, -187500.02, 0.00, 0.00, 0.00
242, -46674.06, -25635.93, -43306.04, -48691.46, 187500.00, -727.91, -187500.02, -187500.02, 0.00, 0.00, 0.00
243, -46696.73, -25513.71, -43342.89, -48667.79, 187500.00, -702.60, -187500.02, -187500.02, 0.00, 0.00, 0.00
244, -46711.55, -25550.90, -43348.75, -48673.63, 187500.00, -691.36, -187500.02, -187500.02, 0.00, 0.00, 0.00
245, -46668.18, -25682.76, -43284.29, -48693.59, 187500.00, -716.40, -187500.02, -187500.02, 0.00, 0.00, 0.00
246, -46648.29, -25707.57, -43261.29, -48696.85, 187500.00, -738.26, -187500.02, -187500.02, 0.00, 0.00, 0.00
247, -46665.01, -25584.81, -43290.66, -48673.54, 187500.00, -742.28, -187500.02, -187500.02, 0.00, 0.00, 0.00
248, -46689.33, -25466.77, -43322.20, -48644.12, 187500.00, -727.57, -187500.02, -187500.02, 0.00, 0.00, 0.00
249, -46690.11, -25498.69, -43308.34, -48641.44, 187500.00, -723.68, -187500.02, -187500.02, 0.00, 0.00, 0.00
250, -46689.08, -25657.21, -43291.84, -48687.37, 187500.00, -768.03, -187500.02, -187500.02, 0.00, 0.00, 0.00
251, -46664.41, -25707.21, -43270.29, -48708.92, 187500.00, -819.88, -187500.02, -187500.02, 0.00, 0.00, 0.00
252, -46657.50, -25580.21, -43278.36, -48673.13, 187500.00, -819.73, -187500.02, -187500.02, 0.00, 0.00, 0.00
253, -46688.64, -25461.68, -43323.51, -48644.91, 187500.00, -798.49, -187500.02, -187500.02, 0.00, 0.00, 0.00
254, -46717.47, -25512.75, -43350.87, -48662.63, 187500.00, -805.22, -187500.02, -187500.02, 0.00, 0.00, 0.00
